Geotek MSCL 7.9 - TN336_TC40-49.raw created at 14:07:07 on 1/26/2016.


Core Depth	Section	Sect Depth	CTD 	Tr. Time 	PW Amp   	A Gamma  	Mag Sus  	Temp     	NC Res   
m		cm	mm	µsec		cps	SI x 10^-5	°C	mV

-0.638	cal	0.01	3.77	999.00	0.0000	15060	-1.0	22.68	7.3
-0.578	cal	6.01	2.68	95.96	0.0195	6280	-2.0	22.72	24.1
-0.518	cal	12.01	0.47	95.76	0.0272	6316	-2.0	22.75	28.5
-0.458	cal	18.01	0.74	95.83	0.0166	6448	-1.0	22.75	28.3
-0.398	cal	24.01	3.43	97.03	0.0009	6298	-2.0	22.73	37.2
-0.338	cal	30.01	6.62	999.00	0.0000	6192	-2.0	22.56	90.9
-0.278	cal	36.01	4.45	96.75	0.0136	6191	-3.0	22.61	627.5
-0.218	cal	42.01	1.33	95.21	0.0033	6282	-2.0	22.62	789.7
-0.158	cal	48.01	0.68	95.07	0.0183	6298	-2.0	22.62	781.2
-0.098	cal	54.01	2.40	95.79	0.0031	6242	-2.0	22.69	746.5
-0.038	cal	60.01	2.29	95.34	0.0089	6104	1.0	22.77	521.9
0.002	1	0.20	6.56	999.00	0.0000	8006	10.0	16.96	315.2
0.012	1	1.20	6.68	96.67	0.0021	5219	13.0	16.76	392.3
0.022	1	2.20	6.70	97.78	0.0062	5133	15.0	16.54	499.0
0.032	1	3.20	6.58	97.83	0.0003	5095	17.0	16.40	604.6
0.042	1	4.20	6.06	98.66	0.0001	5228	18.0	16.22	688.0
0.052	1	5.20	1.44	95.05	0.0038	5175	19.0	16.04	742.3
0.062	1	6.20	1.04	95.08	0.0036	5119	19.0	15.91	771.5
0.072	1	7.20	0.93	95.32	0.0065	5147	20.0	15.80	785.3
0.082	1	8.20	0.93	95.22	0.0029	5096	20.0	15.69	787.4
0.092	1	9.20	0.86	95.49	0.0108	5052	20.0	15.60	788.6
0.102	1	10.20	0.85	95.63	0.0124	5051	21.0	15.60	786.6
0.112	1	11.20	0.88	95.61	0.0104	5106	21.0	15.78	782.7
0.122	1	12.20	0.89	95.46	0.0106	5109	20.0	16.05	777.3
0.132	1	13.20	0.88	95.45	0.0074	5084	20.0	16.34	774.8
0.142	1	14.20	0.94	95.79	0.0082	5171	20.0	16.75	771.2
0.152	1	15.20	0.94	95.66	0.0083	5119	21.0	17.04	773.0
0.162	1	16.20	0.88	95.69	0.0082	5106	20.0	17.30	771.7
0.172	1	17.20	0.89	95.69	0.0095	5046	20.0	17.52	766.8
0.182	1	18.20	0.89	95.79	0.0123	5063	21.0	17.71	744.1
0.192	1	19.20	0.88	95.82	0.0101	5050	20.0	17.90	741.1
0.202	1	20.20	0.88	95.88	0.0083	5059	21.0	18.07	738.8
0.212	1	21.20	0.88	95.86	0.0075	5155	21.0	18.18	736.1
0.222	1	22.20	0.85	96.02	0.0074	5049	22.0	18.28	732.5
0.232	1	23.20	0.80	95.79	0.0080	4945	21.0	18.38	731.5
0.242	1	24.20	0.69	95.85	0.0080	4930	22.0	18.50	730.1
0.252	1	25.20	0.50	95.69	0.0100	4949	22.0	18.62	718.7
0.262	1	26.20	0.50	95.81	0.0099	4969	22.0	18.72	714.9
0.272	1	27.20	0.52	95.18	0.0072	5017	22.0	18.82	711.6
0.282	1	28.20	0.52	95.69	0.0078	4959	22.0	18.91	710.4
0.292	1	29.20	2.70	96.38	0.0022	4938	23.0	18.99	712.6
0.302	1	30.20	2.68	97.13	0.0014	4864	23.0	19.05	694.1
0.312	1	31.20	3.06	999.00	0.0000	4773	22.0	19.15	646.3
0.322	1	32.20	3.30	95.94	0.0002	4750	22.0	19.25	613.5
0.332	1	33.20	2.75	95.89	0.0013	4665	23.0	19.35	562.9
0.342	1	34.20	2.70	96.46	0.0010	4673	22.0	19.43	490.1
0.352	1	35.20	2.71	95.78	0.0025	4755	21.0	19.49	398.0
0.362	1	36.20	6.33	999.00	0.0000	4817	20.0	19.58	303.3
0.372	1	37.20	7.54	999.00	0.0000	5075	20.0	19.67	242.0
0.382	2	0.16	7.48	999.00	0.0000	9323	19.0	19.76	240.1
0.392	2	1.16	6.87	999.00	0.0000	4845	19.0	19.85	298.4
0.402	2	2.16	6.78	97.62	0.0026	4743	20.0	19.93	397.9
0.412	2	3.16	6.32	114.34	0.0001	4814	20.0	20.03	493.7
0.422	2	4.16	5.66	999.00	0.0000	4909	20.0	20.09	559.2
0.432	2	5.16	1.44	95.59	0.0011	4956	19.0	20.17	604.9
0.442	2	6.16	0.91	95.74	0.0007	4976	19.0	20.23	633.9
0.452	2	7.16	0.52	95.70	0.0019	4932	19.0	20.30	652.2
0.462	2	8.16	0.46	95.53	0.0033	4964	19.0	20.36	661.7
0.472	2	9.16	0.35	95.39	0.0052	5046	19.0	20.41	665.9
0.482	2	10.16	0.30	95.14	0.0076	4902	19.0	20.45	669.6
0.492	2	11.16	0.30	95.32	0.0124	4992	19.0	20.51	673.0
0.502	2	12.16	0.24	95.64	0.0113	5019	18.0	20.56	676.8
0.512	2	13.16	0.18	96.08	0.0047	5124	19.0	20.60	681.4
0.522	2	14.16	0.23	102.42	0.0042	5152	19.0	20.65	685.5
0.532	2	15.16	0.23	95.81	0.0028	4991	18.0	20.68	689.7
0.542	2	16.16	0.23	95.24	0.0080	4914	18.0	20.72	690.6
0.552	2	17.16	0.29	95.67	0.0182	4974	18.0	20.76	688.7
0.562	2	18.16	0.33	95.78	0.0143	4933	18.0	20.80	683.4
0.572	2	19.16	0.36	95.66	0.0140	4957	18.0	20.84	679.4
0.582	2	20.16	0.37	95.86	0.0156	4920	18.0	20.88	678.1
0.592	2	21.16	0.42	95.77	0.0092	4896	18.0	20.92	679.4
0.602	2	22.16	0.48	95.82	0.0149	4909	18.0	20.96	680.5
0.612	2	23.16	0.53	96.09	0.0166	4839	18.0	21.00	679.3
0.622	2	24.16	0.63	96.13	0.0145	4826	18.0	21.03	674.2
0.632	2	25.16	0.65	96.12	0.0140	4831	18.0	21.07	670.7
0.642	2	26.16	0.68	96.23	0.0099	4875	18.0	21.11	670.3
0.652	2	27.16	0.68	96.06	0.0136	4841	19.0	21.14	672.4
0.662	2	28.16	0.67	96.18	0.0148	4805	19.0	21.15	673.6
0.672	2	29.16	0.73	96.20	0.0132	4777	19.0	21.18	673.0
0.682	2	30.16	0.73	96.25	0.0133	4770	18.0	21.22	670.1
0.692	2	31.16	0.71	96.34	0.0120	4718	19.0	21.23	665.2
0.702	2	32.16	0.71	96.30	0.0129	4719	19.0	21.25	662.5
0.712	2	33.16	0.67	96.25	0.0118	4760	19.0	21.28	659.2
0.722	2	34.16	0.73	96.22	0.0113	4868	18.0	21.30	652.0
0.732	2	35.16	0.73	96.18	0.0109	5024	18.0	21.33	641.5
0.742	2	36.16	0.73	96.19	0.0117	4974	19.0	21.35	629.0
0.752	2	37.16	0.73	96.24	0.0106	4820	19.0	21.37	617.5
0.762	2	38.16	0.73	96.26	0.0107	4829	19.0	21.39	610.3
0.772	2	39.16	0.73	96.33	0.0104	4744	19.0	21.41	607.7
0.782	2	40.16	0.79	96.29	0.0106	4793	20.0	21.43	608.0
0.792	2	41.16	0.72	96.41	0.0109	4869	20.0	21.46	609.2
0.802	2	42.16	0.74	96.41	0.0105	4776	20.0	21.47	607.5
0.812	2	43.16	0.68	96.24	0.0109	4683	20.0	21.49	604.9
0.822	2	44.16	0.68	96.16	0.0111	4754	20.0	21.50	602.7
0.832	2	45.16	0.63	96.12	0.0104	4825	20.0	21.51	602.5
0.842	2	46.16	0.64	96.09	0.0102	4868	20.0	21.53	602.0
0.852	2	47.16	0.64	96.15	0.0109	4735	21.0	21.56	599.9
0.862	2	48.16	0.69	96.17	0.0113	4672	20.0	21.58	593.9
0.872	2	49.16	0.80	96.19	0.0098	4642	20.0	21.58	586.1
0.882	2	50.16	0.88	96.32	0.0108	4611	20.0	21.59	582.1
0.892	2	51.16	0.93	96.42	0.0103	4632	20.0	21.61	580.7
0.902	2	52.16	1.07	96.44	0.0097	4779	21.0	21.63	580.6
0.912	2	53.16	1.25	96.43	0.0082	4751	20.0	21.65	578.0
0.922	2	54.16	1.40	96.48	0.0078	4728	21.0	21.66	574.2
0.932	2	55.16	1.49	96.49	0.0078	4736	20.0	21.68	571.8
0.942	2	56.16	1.59	96.47	0.0080	4699	21.0	21.70	569.0
0.952	2	57.16	1.64	96.45	0.0073	4733	21.0	21.72	565.7
0.962	2	58.16	1.64	96.45	0.0076	4687	21.0	21.73	561.7
0.972	2	59.16	1.69	96.47	0.0077	4712	20.0	21.75	558.7
0.982	2	60.16	1.68	96.47	0.0084	4717	21.0	21.76	556.1
0.992	2	61.16	1.63	96.45	0.0088	4690	21.0	21.78	553.2
1.002	2	62.16	1.53	96.33	0.0089	4655	21.0	21.79	552.6
1.012	2	63.16	1.46	96.29	0.0092	4602	21.0	21.81	551.4
1.022	2	64.16	1.42	96.30	0.0093	4681	20.0	21.83	551.1
1.032	2	65.16	1.33	96.32	0.0101	4673	20.0	21.84	552.9
1.042	2	66.16	1.27	96.39	0.0095	4671	20.0	21.84	557.1
1.052	2	67.16	1.18	96.30	0.0111	4747	20.0	21.85	562.3
1.062	2	68.16	1.13	96.43	0.0108	4816	20.0	21.87	567.7
1.072	2	69.16	1.10	96.44	0.0115	4798	20.0	21.88	569.8
1.082	2	70.16	1.08	96.38	0.0104	4744	21.0	21.90	572.1
1.092	2	71.16	1.03	96.27	0.0117	4717	21.0	21.91	569.4
1.102	2	72.16	0.99	96.23	0.0113	4718	21.0	21.92	568.7
1.112	2	73.16	0.95	96.24	0.0118	4663	21.0	21.93	568.6
1.122	2	74.16	0.86	96.22	0.0127	4687	21.0	21.95	569.0
1.132	2	75.16	0.86	96.19	0.0124	4702	21.0	21.96	573.2
1.142	2	76.16	0.76	96.19	0.0120	4661	22.0	21.98	577.7
1.152	2	77.16	0.71	96.18	0.0113	4682	22.0	21.99	582.6
1.162	2	78.16	0.66	96.11	0.0122	4658	22.0	22.02	584.8
1.172	2	79.16	0.61	96.07	0.0128	4647	21.0	22.02	584.3
1.182	2	80.16	0.56	96.03	0.0124	4601	22.0	22.04	583.5
1.192	2	81.16	0.53	96.03	0.0133	4565	21.0	22.05	580.7
1.202	2	82.16	0.51	96.02	0.0134	4634	22.0	22.05	578.3
1.212	2	83.16	0.41	95.92	0.0129	4589	23.0	22.06	574.3
1.222	2	84.16	0.42	95.87	0.0118	4576	22.0	22.06	572.1
1.232	2	85.16	0.36	95.87	0.0095	4583	22.0	22.08	568.8
1.242	2	86.16	0.31	95.80	0.0101	4507	23.0	22.08	567.7
1.252	2	87.16	0.27	95.80	0.0110	4558	23.0	22.09	568.2
1.262	2	88.16	0.26	95.82	0.0103	4528	23.0	22.10	565.5
1.272	2	89.16	0.32	95.83	0.0103	4588	23.0	22.11	563.3
1.282	2	90.16	0.26	95.78	0.0088	4605	24.0	22.13	561.7
1.292	2	91.16	0.28	95.87	0.0100	4572	24.0	22.12	561.9
1.302	2	92.16	0.27	95.94	0.0099	4645	23.0	22.13	563.7
1.312	2	93.16	0.27	95.92	0.0100	4610	24.0	22.15	566.0
1.322	2	94.16	0.33	95.99	0.0095	4542	24.0	22.15	566.6
1.332	2	95.16	0.27	96.04	0.0087	4570	24.0	22.14	564.2
1.342	2	96.16	0.27	96.01	0.0087	4601	25.0	22.10	562.6
1.352	2	97.16	0.27	95.87	0.0094	4526	25.0	22.00	561.7
1.362	2	98.16	0.27	96.02	0.0092	4591	26.0	21.90	559.2
1.372	2	99.16	0.27	96.05	0.0093	4629	26.0	21.84	556.1
1.382	2	100.16	0.27	96.05	0.0077	4573	26.0	21.78	551.8
1.392	2	101.16	0.32	95.97	0.0079	4557	27.0	21.73	547.1
1.402	2	102.16	0.37	96.01	0.0074	4527	28.0	21.68	544.5
1.412	2	103.16	0.41	96.03	0.0073	4567	28.0	21.63	544.1
1.422	2	104.16	0.41	96.03	0.0067	4516	29.0	21.60	546.5
1.432	2	105.16	0.41	95.91	0.0062	4535	29.0	21.62	547.9
1.442	2	106.16	0.47	95.94	0.0065	4498	29.0	21.68	547.0
1.452	2	107.16	0.41	95.97	0.0065	4504	29.0	21.77	546.9
1.462	2	108.16	0.47	95.92	0.0063	4454	31.0	21.84	545.9
1.472	2	109.16	0.51	95.84	0.0062	4506	32.0	22.03	543.4
1.482	2	110.16	0.52	95.92	0.0062	4611	32.0	22.10	539.9
1.492	2	111.16	0.52	96.05	0.0058	4578	33.0	22.14	534.9
1.502	2	112.16	0.57	96.05	0.0056	4543	35.0	22.18	533.2
1.512	2	113.16	0.57	96.05	0.0063	4422	35.0	22.23	532.0
1.522	2	114.16	0.62	96.04	0.0067	4486	37.0	22.26	534.5
1.532	2	115.16	0.62	96.09	0.0059	4475	37.0	22.26	534.7
1.542	2	116.16	0.64	96.11	0.0059	4514	38.0	22.29	534.5
1.552	2	117.16	0.62	96.14	0.0058	4444	39.0	22.29	538.5
1.562	2	118.16	0.67	96.22	0.0061	4539	40.0	22.31	539.5
1.572	2	119.16	0.67	96.21	0.0058	4501	41.0	22.34	540.5
1.582	2	120.16	0.67	96.10	0.0057	4481	42.0	22.35	539.4
1.592	2	121.16	0.72	96.03	0.0051	4399	43.0	22.37	533.8
1.602	2	122.16	0.77	96.04	0.0051	4430	44.0	22.41	530.6
1.612	2	123.16	0.87	96.08	0.0048	4409	44.0	22.43	529.5
1.622	2	124.16	0.87	96.12	0.0051	4392	45.0	22.45	514.7
1.632	2	125.16	0.99	96.13	0.0047	4478	47.0	22.47	498.9
1.642	2	126.16	1.07	96.20	0.0046	4504	47.0	22.49	494.4
1.652	2	127.16	1.14	96.34	0.0044	4478	48.0	22.52	492.0
1.662	2	128.16	1.24	96.41	0.0038	4461	51.0	22.53	489.7
1.672	2	129.16	1.34	96.47	0.0036	4566	52.0	22.54	488.8
1.682	2	130.16	1.44	96.54	0.0021	4580	53.0	22.54	489.2
1.692	2	131.16	1.55	96.27	0.0018	4395	56.0	22.56	488.5
1.702	2	132.16	1.73	96.53	0.0026	4392	58.0	22.55	487.7
1.712	2	133.16	1.95	96.48	0.0021	4390	59.0	22.57	483.6
1.722	2	134.16	2.24	96.61	0.0009	4352	62.0	22.58	480.7
1.732	2	135.16	2.67	97.39	0.0002	4341	62.0	22.60	477.2
1.742	2	136.16	4.15	96.70	0.0002	4325	64.0	22.62	472.6
1.752	2	137.16	4.38	97.83	0.0005	4306	65.0	22.64	463.5
1.762	2	138.16	4.40	98.29	0.0001	4178	65.0	22.66	446.8
1.772	2	139.16	4.44	99.36	0.0001	4279	65.0	22.67	418.3
1.782	2	140.16	4.17	97.81	0.0002	4279	65.0	22.67	373.1
1.792	2	141.16	3.85	999.00	0.0000	4396	62.0	22.67	310.2
1.802	2	142.16	3.38	95.08	0.0005	4174	58.0	22.67	238.4
1.812	2	143.16	3.06	96.76	0.0005	4236	50.0	22.67	172.8
1.822	2	144.16	2.52	999.00	0.0000	5037	38.0	22.68	129.1
