Geotek MSCL 7.9 - TN336_JPC32-36.raw created at 18:51:28 on 1/24/2016.											Geotek MSCL 7.9 - TN336_JPC32-36.out created at 18:52:17 on 1/24/2016.											
																						
																						
Core Depth	Section	Sect Depth	CTD 	Tr. Time 	PW Amp   	A Gamma  	Mag Sus  	Temp     	NC Res   		SB DEPTH	SECT NUM	SECT DEPTH	CT	PWAmp	PWVel	Den1	MS1	MS1	Imp	FP	RES
m		cm	mm	µsec		cps	SI x 10^-5	°C	mV		m		cm	cm		m/s	g/cc	SI x 10^-5	x 10^-8 (m^3/kg)			Ohm.m
																						
0.003	1	0.3	7.16	999	0	6675	13	20.15	254		0.003	1	0.3	10.896	0	112.0331	1.08	10.492	9.7148	120.9964	0.9687	1.3162
0.013	1	1.3	7.04	101.85	0.0001	5009	16	20.15	309.5		0.013	1	1.3	10.884	0.0001	1443.119	1.4253	12.9539	9.0885	2056.896	0.7684	1.0638
0.023	1	2.3	7.66	97.77	0.0005	4932	19	20.15	406.1		0.023	1	2.3	10.946	0.0005	1534.343	1.4364	15.1355	10.537	2203.944	0.7619	0.7937
0.033	1	3.3	7.32	97.78	0.001	4865	21	20.15	493.4		0.033	1	3.3	10.912	0.001	1529.362	1.4579	16.8778	11.5766	2229.7	0.7495	0.6436
0.043	1	4.3	6.69	98.11	0.0003	4892	23	20.15	552.7		0.043	1	4.3	10.849	0.0003	1513.532	1.4595	18.7933	12.877	2208.926	0.7486	0.5695
0.053	1	5.3	2.31	94.78	0.0011	4737	25	20.16	590.9		0.053	1	5.3	10.411	0.0011	1523.19	1.5631	22.9891	14.7074	2380.89	0.6885	0.5298
0.063	1	6.3	1.44	95.62	0.0036	4700	25	20.15	613.3		0.063	1	6.3	10.324	0.0036	1492.123	1.5867	23.5512	14.8429	2367.549	0.6748	0.509
0.073	1	7.3	0.58	94.22	0.0019	4617	26	20.15	626.2		0.073	1	7.3	10.238	0.0019	1510.252	1.624	25.091	15.45	2452.665	0.6531	0.4978
0.083	1	8.3	0.14	93.81	0.0062	4570	27	20.15	628.1		0.083	1	8.3	10.194	0.0062	1512.912	1.6449	26.3818	16.0385	2488.597	0.641	0.4961
0.093	1	9.3	0.14	94.36	0.0123	4745	27	20.15	626.2		0.093	1	9.3	10.194	0.0123	1500.662	1.5941	26.3818	16.5497	2392.204	0.6705	0.4977
0.103	1	10.3	0.19	94.66	0.0227	4774	26	20.15	624.2		0.103	1	10.3	10.199	0.0227	1494.797	1.5851	25.3688	16.0042	2369.45	0.6757	0.4995
0.113	1	11.3	0.18	94.55	0.0185	4730	26	20.15	625		0.113	1	11.3	10.198	0.0185	1497.064	1.5977	25.3759	15.8825	2391.908	0.6684	0.4988
0.123	1	12.3	0.25	94.58	0.0182	4799	25	20.16	624.4		0.123	1	12.3	10.205	0.0182	1497.432	1.5772	24.3517	15.4398	2361.747	0.6803	0.4993
0.133	1	13.3	0.29	94.88	0.0199	4797	23	20.15	622.9		0.133	1	13.3	10.209	0.0199	1491.454	1.5771	22.3782	14.1891	2352.228	0.6803	0.5006
0.143	1	14.3	0.39	94.93	0.0206	4781	24	20.16	619		0.143	1	14.3	10.219	0.0206	1491.825	1.5801	23.2853	14.7369	2357.183	0.6786	0.504
0.153	1	15.3	0.39	95.04	0.0214	4873	23	20.15	616.1		0.153	1	15.3	10.219	0.0214	1489.433	1.5546	22.3151	14.3542	2315.484	0.6934	0.5065
0.163	1	16.3	0.45	95.14	0.016	4881	23	20.16	615.3		0.163	1	16.3	10.225	0.016	1488.139	1.5515	22.2774	14.3585	2308.864	0.6952	0.5073
0.173	1	17.3	0.44	94.94	0.0161	4916	22	20.16	612.6		0.173	1	17.3	10.224	0.0161	1492.337	1.5422	21.3148	13.8214	2301.424	0.7006	0.5097
0.183	1	18.3	0.45	95.18	0.0205	4940	23	20.16	610.9		0.183	1	18.3	10.225	0.0205	1487.273	1.5355	22.2774	14.5078	2283.774	0.7044	0.5112
0.193	1	19.3	0.49	95.25	0.0167	4828	22	20.16	610.4		0.193	1	19.3	10.229	0.0167	1486.341	1.5655	21.2847	13.5966	2326.795	0.6871	0.5117
0.203	1	20.3	0.54	95.23	0.0138	4862	23	20.16	607.5		0.203	1	20.3	10.234	0.0138	1487.5	1.5553	22.2209	14.2869	2313.563	0.693	0.5143
0.213	1	21.3	0.55	95	0.0174	4857	23	20.16	608.3		0.213	1	21.3	10.235	0.0174	1492.635	1.5566	22.2146	14.2717	2323.368	0.6923	0.5136
0.223	1	22.3	0.55	95.01	0.0163	4846	23	20.17	610.8		0.223	1	22.3	10.235	0.0163	1492.417	1.5596	22.2146	14.244	2327.535	0.6905	0.5113
0.233	1	23.3	0.63	95.15	0.015	4792	23	20.16	613.5		0.233	1	23.3	10.243	0.015	1490.541	1.5733	22.1646	14.088	2345.061	0.6825	0.5089
0.243	1	24.3	0.67	95.26	0.0185	4718	23	20.16	616.1		0.243	1	24.3	10.247	0.0185	1488.74	1.5935	22.1397	13.8938	2372.302	0.6708	0.5066
0.253	1	25.3	0.68	95.38	0.0129	4712	23	20.16	617.8		0.253	1	25.3	10.248	0.0129	1486.295	1.595	22.1335	13.8764	2370.708	0.6699	0.5051
0.263	1	26.3	0.81	95.29	0.0145	4775	23	20.17	620.3		0.263	1	26.3	10.261	0.0145	1490.125	1.5753	22.0527	13.9993	2347.355	0.6814	0.5029
0.273	1	27.3	0.79	95.01	0.024	4722	21	20.17	621.1		0.273	1	27.3	10.259	0.024	1495.917	1.5905	20.1464	12.6667	2379.252	0.6726	0.5022
0.283	1	28.3	0.84	95.14	0.0171	4677	22	20.17	621.3		0.283	1	28.3	10.264	0.0171	1493.815	1.6025	21.0761	13.1516	2393.911	0.6656	0.502
0.293	1	29.3	0.89	95.33	0.0073	4610	23	20.16	622.2		0.293	1	29.3	10.269	0.0073	1490.421	1.6211	22.0032	13.5726	2416.195	0.6548	0.5012
0.303	1	30.3	0.89	95.36	0.005	4659	23	20.17	619		0.303	1	30.3	10.269	0.005	1489.772	1.6069	22.0032	13.6926	2393.975	0.663	0.504
0.313	1	31.3	0.97	95.29	0.0041	4668	22	20.16	611.6		0.313	1	31.3	10.277	0.0041	1492.448	1.6031	20.9993	13.0992	2392.548	0.6653	0.5106
0.323	1	32.3	1.02	95.21	0.0057	4641	22	20.17	606		0.323	1	32.3	10.282	0.0057	1494.911	1.6101	20.9699	13.024	2406.956	0.6612	0.5156
0.333	1	33.3	0.97	94.99	0.0076	4674	22	20.17	596.8		0.333	1	33.3	10.277	0.0076	1498.979	1.6014	20.9993	13.1133	2400.437	0.6663	0.5242
0.343	1	34.3	1.01	95.25	0.0077	4595	22	20.17	577.7		0.343	1	34.3	10.281	0.0077	1493.897	1.6236	20.9758	12.919	2425.551	0.6533	0.5429
0.353	1	35.3	1.02	95.25	0.0088	4673	21	20.17	565		0.353	1	35.3	10.282	0.0088	1494.042	1.6009	20.0167	12.5035	2391.796	0.6665	0.5561
0.363	1	36.3	1.02	95.11	0.0059	4657	21	20.17	551.9		0.363	1	36.3	10.282	0.0059	1497.088	1.6055	20.0167	12.4677	2403.551	0.6639	0.5704
0.373	1	37.3	1.08	95.36	0.0056	4727	21	20.17	544.2		0.373	1	37.3	10.288	0.0056	1492.529	1.5846	19.9831	12.6108	2365.063	0.676	0.5791
0.383	1	38.3	1.02	95.42	0.0056	4706	20	20.17	539.8		0.383	1	38.3	10.282	0.0056	1490.361	1.5915	19.0636	11.9786	2371.871	0.672	0.5841
0.393	1	39.3	1.03	95.24	0.0059	4595	20	20.18	534		0.393	1	39.3	10.283	0.0059	1494.405	1.6233	19.0582	11.7402	2425.904	0.6535	0.5909
0.403	1	40.3	1.02	95.15	0.0071	4640	19	20.17	530.1		0.403	1	40.3	10.282	0.0071	1496.216	1.6104	18.1104	11.246	2409.49	0.661	0.5956
0.413	1	41.3	0.97	95.34	0.0072	4706	20	20.18	523.1		0.413	1	41.3	10.277	0.0072	1491.366	1.5922	19.0903	11.9895	2374.625	0.6715	0.6043
0.423	1	42.3	0.95	95.69	0.0055	4744	20	20.17	521.1		0.423	1	42.3	10.275	0.0055	1483.54	1.5818	19.101	12.0754	2346.683	0.6776	0.6068
0.433	1	43.3	1	95.7	0.0068	4627	20	20.18	519.6		0.433	1	43.3	10.28	0.0068	1484.048	1.6145	19.0743	11.8146	2395.949	0.6587	0.6087
0.443	1	44.3	1	95.62	0.0073	4685	19	20.18	517.2		0.443	1	44.3	10.28	0.0073	1485.764	1.5978	18.1205	11.3412	2373.904	0.6683	0.6117
0.453	1	45.3	1.01	95.67	0.0076	4724	19	20.18	516.6		0.453	1	45.3	10.281	0.0076	1484.835	1.5865	18.1155	11.4183	2355.734	0.6749	0.6125
0.463	1	46.3	0.95	95.74	0.0082	4724	20	20.18	518.1		0.463	1	46.3	10.275	0.0082	1482.47	1.5875	19.101	12.0325	2353.354	0.6743	0.6106
0.473	1	47.3	1.01	95.77	0.0046	4685	20	20.18	516.3		0.473	1	47.3	10.281	0.0046	1482.694	1.5976	19.0689	11.9359	2368.768	0.6684	0.6128
0.483	1	48.3	1.01	95.75	0.0041	4734	20	20.19	515.3		0.483	1	48.3	10.281	0.0041	1483.122	1.5837	19.0689	12.0407	2348.828	0.6765	0.6141
0.493	1	49.3	1.08	95.77	0.0058	4726	20	20.18	514.6		0.493	1	49.3	10.288	0.0058	1483.704	1.5849	19.0315	12.0082	2351.498	0.6758	0.615
0.503	1	50.3	1.13	95.67	0.0074	4687	19	20.18	516.3		0.503	1	50.3	10.293	0.0074	1486.568	1.5952	18.0547	11.3183	2371.341	0.6699	0.6128
0.513	1	51.3	1.2	95.76	0.0081	4678	20	20.18	518.5		0.513	1	51.3	10.3	0.0081	1485.648	1.5967	18.9677	11.8796	2372.078	0.669	0.6101
0.523	1	52.3	1.27	95.58	0.0074	4555	20	20.18	522.5		0.523	1	52.3	10.307	0.0074	1490.528	1.6313	18.9306	11.6047	2431.487	0.6489	0.605
0.533	1	53.3	1.4	95.6	0.0085	4642	20	20.18	524.9		0.533	1	53.3	10.32	0.0085	1491.976	1.6039	18.862	11.7602	2392.955	0.6648	0.602
0.543	1	54.3	1.52	95.66	0.0084	4724	20	20.18	527.8		0.543	1	54.3	10.332	0.0084	1492.417	1.5787	18.799	11.9079	2356.073	0.6794	0.5985
0.553	1	55.3	1.52	96.03	0.0079	4709	20	20.19	532		0.553	1	55.3	10.332	0.0079	1484.483	1.5829	18.799	11.8761	2349.825	0.677	0.5934
0.563	1	56.3	1.47	96.01	0.0061	4718	20	20.19	535.2		0.563	1	56.3	10.327	0.0061	1484.191	1.5812	18.8252	11.906	2346.73	0.678	0.5896
0.573	1	57.3	1.52	95.79	0.008	4746	21	20.19	539.2		0.573	1	57.3	10.332	0.008	1489.619	1.5725	19.7389	12.5524	2342.467	0.683	0.5848
0.583	1	58.3	1.47	95.86	0.0101	4699	21	20.19	540.9		0.583	1	58.3	10.327	0.0101	1487.397	1.5865	19.7665	12.459	2359.787	0.6749	0.5828
0.593	1	59.3	1.21	95.73	0.0126	4617	21	20.2	541.1		0.593	1	59.3	10.301	0.0126	1486.436	1.6141	19.9105	12.3355	2399.223	0.6589	0.5826
0.603	1	60.3	1.16	95.77	0.0086	4667	21	20.2	540.3		0.603	1	60.3	10.296	0.0086	1484.857	1.6004	19.9384	12.4582	2376.411	0.6668	0.5835
0.613	1	61.3	1.11	95.65	0.009	4631	21	20.21	538.3		0.613	1	61.3	10.291	0.009	1486.709	1.6116	19.9663	12.3893	2395.956	0.6603	0.5859
0.623	1	62.3	1.13	95.65	0.0128	4662	22	20.21	536.6		0.623	1	62.3	10.293	0.0128	1486.998	1.6023	20.9054	13.0469	2382.664	0.6657	0.5879
0.633	1	63.3	1.11	95.8	0.011	4729	23	20.21	535.1		0.633	1	63.3	10.291	0.011	1483.494	1.5836	21.8679	13.8092	2349.225	0.6766	0.5897
0.643	1	64.3	1.11	95.85	0.0091	4710	22	20.21	534.5		0.643	1	64.3	10.291	0.0091	1482.426	1.5889	20.9171	13.1641	2355.497	0.6735	0.5904
0.653	1	65.3	1.06	96	0.0096	4727	23	20.2	532.4		0.653	1	65.3	10.286	0.0096	1478.511	1.5849	21.8985	13.8169	2343.307	0.6758	0.5929
0.663	1	66.3	1.06	95.84	0.0122	4766	23	20.2	533.9		0.663	1	66.3	10.286	0.0122	1481.919	1.574	21.8985	13.913	2332.477	0.6822	0.5911
0.673	1	67.3	0.96	95.87	0.0128	4752	24	20.2	531.6		0.673	1	67.3	10.276	0.0128	1479.839	1.5794	22.9148	14.5084	2337.274	0.679	0.5939
0.683	1	68.3	0.96	95.86	0.0108	4778	24	20.21	528.1		0.683	1	68.3	10.276	0.0108	1480.052	1.5721	22.9148	14.5756	2326.846	0.6832	0.598
0.693	1	69.3	0.96	95.94	0.0106	4854	24	20.21	526.6		0.693	1	69.3	10.276	0.0106	1478.348	1.5512	22.9148	14.7727	2293.159	0.6954	0.6
0.703	1	70.3	1	96.07	0.0099	4758	24	20.22	525.8		0.703	1	70.3	10.28	0.0099	1476.163	1.5771	22.8891	14.5133	2328.078	0.6803	0.6009
0.713	1	71.3	1.01	95.92	0.0146	4773	24	20.22	526.4		0.713	1	71.3	10.281	0.0146	1479.494	1.5728	22.8827	14.5493	2326.899	0.6828	0.6001
0.723	1	72.3	1.03	95.75	0.0146	4747	24	20.21	524.3		0.723	1	72.3	10.283	0.0146	1483.41	1.5797	22.8699	14.477	2343.402	0.6788	0.6028
0.733	1	73.3	1.06	95.65	0.0118	4677	24	20.2	521.4		0.733	1	73.3	10.286	0.0118	1485.987	1.5991	22.8506	14.2895	2376.273	0.6676	0.6064
0.743	1	74.3	1.17	95.63	0.0155	4652	25	20.21	520		0.743	1	74.3	10.297	0.0155	1488.006	1.6046	23.7296	14.7886	2387.629	0.6644	0.6081
0.753	1	75.3	1.17	95.64	0.0135	4612	25	20.21	519		0.753	1	75.3	10.297	0.0135	1487.791	1.6162	23.7296	14.6827	2404.506	0.6577	0.6093
0.763	1	76.3	1.26	95.41	0.0075	4457	25	20.21	513.2		0.763	1	76.3	10.306	0.0075	1494.056	1.6608	23.6699	14.2521	2481.331	0.6318	0.6168
0.773	1	77.3	1.35	95.32	0.0087	4590	25	20.21	509.8		0.773	1	77.3	10.315	0.0087	1497.314	1.6197	23.6104	14.5766	2425.273	0.6556	0.6212
0.783	1	78.3	1.42	95.8	0.0065	4697	24	20.22	506		0.783	1	78.3	10.322	0.0065	1487.963	1.5879	22.6218	14.2467	2362.671	0.6741	0.6263
0.793	1	79.3	1.46	95.87	0.0066	4630	24	20.22	480.1		0.793	1	79.3	10.326	0.0066	1487.039	1.6064	22.5965	14.0665	2388.794	0.6633	0.6628
0.803	1	80.3	1.52	95.85	0.0066	4583	23	20.22	482		0.803	1	80.3	10.332	0.0066	1488.332	1.6191	21.6188	13.3521	2409.8	0.656	0.66
0.813	1	81.3	1.62	95.75	0.0063	4582	22	20.22	486.7		0.813	1	81.3	10.342	0.0063	1491.922	1.6179	20.6213	12.7461	2413.712	0.6567	0.6531
0.823	1	82.3	1.72	95.75	0.0059	4681	21	20.22	489		0.823	1	82.3	10.352	0.0059	1493.364	1.5878	19.6293	12.3627	2371.147	0.6741	0.6498
0.833	1	83.3	1.87	95.84	0.0074	4580	21	20.22	491.3		0.833	1	83.3	10.367	0.0074	1493.589	1.6145	19.5476	12.1073	2411.453	0.6586	0.6465
0.843	1	84.3	1.87	95.88	0.0072	4692	21	20.22	494.5		0.843	1	84.3	10.367	0.0072	1492.729	1.5824	19.5476	12.3533	2362.059	0.6773	0.642
0.853	1	85.3	1.98	96	0.0071	4638	20	20.22	497		0.853	1	85.3	10.378	0.0071	1491.735	1.5961	18.5601	11.6286	2380.906	0.6693	0.6385
0.863	1	86.3	2.03	96.09	0.0082	4673	20	20.23	499.9		0.863	1	86.3	10.383	0.0082	1490.525	1.5853	18.5343	11.6913	2362.954	0.6756	0.6344
0.873	1	87.3	2.47	96.58	0.0052	4704	19	20.23	500.9		0.873	1	87.3	10.427	0.0052	1486.386	1.5699	17.3947	11.0801	2333.482	0.6845	0.6331
0.883	1	88.3	2.58	96.37	0.004	4656	19	20.23	503.7		0.883	1	88.3	10.438	0.004	1492.422	1.5818	17.342	10.9637	2360.673	0.6776	0.6294
0.893	1	89.3	2.64	96.17	0.0035	4577	19	20.23	502.9		0.893	1	89.3	10.444	0.0035	1497.563	1.6035	17.3134	10.7973	2401.343	0.665	0.6304
0.903	1	90.3	4.98	97.84	0.0004	4630	19	20.24	500.1		0.903	1	90.3	10.678	0.0004	1495.309	1.5535	16.2467	10.4584	2322.895	0.6941	0.6342
0.913	1	91.3	5.1	97.96	0.0001	4587	19	20.23	494.5		0.913	1	91.3	10.69	0.0001	1494.478	1.5638	16.1945	10.356	2337.027	0.6881	0.642
0.923	1	92.3	4.6	999	0	4530	19	20.24	483		0.923	1	92.3	10.64	0	109.4009	1.5874	16.4135	10.3398	173.6646	0.6744	0.6585
0.933	1	93.3	4.39	999	0	4554	20	20.24	463.9		0.933	1	93.3	10.619	0	109.1849	1.5837	17.3755	10.9718	172.9107	0.6765	0.6878
0.943	1	94.3	3.89	999	0	4592	21	20.23	434.4		0.943	1	94.3	10.569	0	108.6708	1.5803	18.4929	11.7025	171.7273	0.6785	0.7381
0.953	1	95.3	3.65	96.1	0.0012	4602	21	20.24	388.4		0.953	1	95.3	10.545	0.0012	1513.564	1.581	18.614	11.7736	2392.937	0.6781	0.8328
0.963	1	96.3	3.59	95.72	0.0192	4575	21	20.24	319.5		0.963	1	96.3	10.539	0.0192	1520.999	1.5896	18.6444	11.7289	2417.812	0.6731	1.0277
0.973	1	97.3	5.94	97.03	0.0023	4532	21	20.24	236		0.973	1	97.3	10.774	0.0023	1526.062	1.5671	17.5027	11.1688	2391.498	0.6861	1.4246
0.983	1	98.3	7.12	999	0	4609	22	20.24	176.2		0.983	1	98.3	10.892	0	111.9919	1.5287	17.7743	11.6271	171.2019	0.7084	1.9521
0.993	2	0.01	7.39	999	0	8893	23	20.24	166.6		0.993	2	0	10.919	0	112.2696	0.7567	18.4514	24.3828	84.9587	1.1562	2.0724
1.003	2	1.01	7.71	999	0	4600	23	20.24	206.6		1.003	2	1	10.951	0	112.5986	1.5229	18.2981	12.0151	171.4797	0.7118	1.6442
1.013	2	2.01	7.88	102.38	0.0001	4568	23	20.24	273.1		1.013	2	2	10.968	0.0001	1444.108	1.5294	18.2174	11.9116	2208.589	0.708	1.217
1.023	2	3.01	7.51	999	0	4555	24	20.24	344.2		1.023	2	3	10.931	0	112.3929	1.5382	19.1934	12.4781	172.8794	0.7029	0.9485
1.033	2	4.01	6.93	999	0	4649	25	20.25	402.5		1.033	2	4	10.873	0	111.7966	1.5204	20.299	13.3511	169.9753	0.7132	0.8013
1.043	2	5.01	3.03	99.38	0.0001	4722	25	20.25	440.2		1.043	2	5	10.483	0.0001	1437.012	1.5565	22.538	14.4798	2236.726	0.6923	0.7276
1.053	2	6.01	2.18	100.19	0.0002	4684	26	20.25	467.2		1.053	2	6	10.398	0.0002	1409.707	1.5799	23.9948	15.1874	2227.22	0.6787	0.6825
1.063	2	7.01	0.75	105.34	0.0002	4653	26	20.25	479.4		1.063	2	7	10.255	0.0002	1299.582	1.6109	24.9712	15.5017	2093.453	0.6608	0.6637
1.073	2	8.01	0.53	100.01	0.0004	4727	26	20.25	486.4		1.073	2	8	10.233	0.0004	1390.731	1.5931	25.1263	15.7718	2215.6	0.671	0.6535
1.083	2	9.01	0.24	105.75	0.0007	4731	26	20.25	489.2		1.083	2	9	10.204	0.0007	1286.435	1.5965	25.3329	15.8677	2053.804	0.6691	0.6494
1.093	2	10.01	0.29	93.92	0.0012	4709	26	20.25	489.7		1.093	2	10	10.209	0.0012	1512.669	1.602	25.2971	15.791	2423.29	0.6659	0.6488
1.103	2	11.01	0.29	100.49	0.0013	4654	26	20.25	491.1		1.103	2	11	10.209	0.0013	1378.477	1.6178	25.2971	15.6364	2230.147	0.6567	0.6468
1.113	2	12.01	0.39	93.59	0.0018	4690	26	20.25	494.4		1.113	2	12	10.219	0.0018	1521.59	1.6059	25.2258	15.7085	2443.473	0.6636	0.6421
1.123	2	13.01	0.39	94.07	0.0036	4622	26	20.25	491.2		1.123	2	13	10.219	0.0036	1510.792	1.6256	25.2258	15.5181	2455.894	0.6522	0.6467
1.133	2	14.01	0.45	94.24	0.0038	4615	27	20.25	491.1		1.133	2	14	10.225	0.0038	1507.89	1.6267	26.1517	16.0769	2452.825	0.6516	0.6467
1.143	2	15.01	0.49	94.47	0.0023	4603	27	20.25	490.1		1.143	2	15	10.229	0.0023	1503.38	1.6295	26.1222	16.0304	2449.822	0.6499	0.6482
1.153	2	16.01	0.59	94.01	0.0058	4567	27	20.25	490		1.153	2	16	10.239	0.0058	1515.093	1.6386	26.0487	15.8973	2482.578	0.6447	0.6484
1.163	2	17.01	0.64	93.89	0.0047	4531	27	20.25	490.2		1.163	2	17	10.244	0.0047	1518.529	1.6485	26.012	15.7794	2503.267	0.6389	0.6481
1.173	2	18.01	0.74	93.76	0.0077	4376	27	20.24	491.9		1.173	2	18	10.254	0.0077	1522.947	1.6942	25.9389	15.3101	2580.236	0.6124	0.6456
1.183	2	19.01	0.79	93.9	0.0043	4353	28	20.25	492.6		1.183	2	19	10.259	0.0043	1520.528	1.7006	26.8619	15.7953	2585.842	0.6087	0.6447
1.193	2	20.01	0.88	94.43	0.0067	4599	27	20.25	493.3		1.193	2	20	10.268	0.0067	1510	1.6245	25.8371	15.9044	2453.031	0.6528	0.6437
1.203	2	21.01	0.93	94.99	0.0039	4719	27	20.25	493.4		1.203	2	21	10.273	0.0039	1498.396	1.5892	25.8009	16.2353	2381.219	0.6733	0.6435
1.213	2	22.01	0.96	94.7	0.0021	4714	27	20.25	496.4		1.213	2	22	10.276	0.0021	1505.2	1.5901	25.7791	16.212	2393.467	0.6728	0.6393
1.223	2	23.01	0.98	94.98	0.0017	4596	26	20.25	499.9		1.223	2	23	10.278	0.0017	1499.344	1.6238	24.8104	15.2791	2434.666	0.6532	0.6345
1.233	2	24.01	1.02	94.88	0.0026	4629	26	20.25	503.8		1.233	2	24	10.282	0.0026	1502.118	1.6136	24.7826	15.3588	2423.78	0.6592	0.6292
1.243	2	25.01	1.01	95.14	0.0045	4573	26	20.26	509.6		1.243	2	25	10.281	0.0045	1496.289	1.6301	24.7896	15.2074	2439.103	0.6496	0.6215
1.253	2	26.01	1.04	95.07	0.0026	4528	26	20.26	512.2		1.253	2	26	10.284	0.0026	1498.252	1.643	24.7688	15.0757	2461.573	0.6421	0.6182
1.263	2	27.01	1.07	95.26	0.0027	4568	26	20.26	512.1		1.263	2	27	10.287	0.0027	1494.552	1.6306	24.7479	15.177	2437.052	0.6493	0.6183
1.273	2	28.01	1.02	94.9	0.0059	4543	24	20.26	512.7		1.273	2	28	10.282	0.0059	1501.679	1.6388	22.8763	13.959	2460.979	0.6445	0.6174
1.283	2	29.01	1.1	95.18	0.0077	4589	25	20.26	513.1		1.283	2	29	10.29	0.0077	1496.727	1.624	23.7761	14.6407	2430.65	0.6531	0.6169
1.293	2	30.01	1.11	95.11	0.0063	4601	26	20.26	514.5		1.293	2	30	10.291	0.0063	1498.398	1.6203	24.7202	15.2565	2427.868	0.6553	0.6151
1.303	2	31.01	1.11	95.18	0.0092	4604	26	20.27	506.9		1.303	2	31	10.291	0.0092	1496.873	1.6194	24.7202	15.2647	2424.085	0.6558	0.6251
1.313	2	32.01	1.14	95.24	0.0078	4559	26	20.26	502.1		1.313	2	32	10.294	0.0078	1496.004	1.6322	24.6995	15.1329	2441.733	0.6484	0.6315
1.323	2	33.01	1.16	95.23	0.0124	4607	25	20.26	499.4		1.323	2	33	10.296	0.0124	1496.511	1.6178	23.7362	14.6722	2421.014	0.6567	0.6351
1.333	2	34.01	1.17	95.4	0.0101	4572	25	20.26	494.9		1.333	2	34	10.297	0.0101	1492.968	1.6279	23.7296	14.5771	2430.347	0.6509	0.6414
1.343	2	35.01	1.12	95.34	0.006	4563	25	20.26	491.2		1.343	2	35	10.292	0.006	1493.542	1.6313	23.7628	14.5667	2436.425	0.6489	0.6466
1.353	2	36.01	1.07	95.32	0.0046	4567	25	20.26	485.8		1.353	2	36	10.287	0.0046	1493.25	1.6309	23.7961	14.5906	2435.37	0.6491	0.6544
1.363	2	37.01	1.02	95.11	0.0085	4607	25	20.27	475.6		1.363	2	37	10.282	0.0085	1497.088	1.62	23.8295	14.7098	2425.245	0.6555	0.6695
1.373	2	38.01	0.97	95.13	0.0072	4599	25	20.27	465.9		1.373	2	38	10.277	0.0072	1495.924	1.6231	23.8629	14.702	2428.036	0.6537	0.6845
1.383	2	39.01	0.95	95.07	0.0063	4520	25	20.27	460.7		1.383	2	39	10.275	0.0063	1496.941	1.6468	23.8763	14.4987	2465.152	0.6399	0.6929
1.393	2	40.01	0.97	95.21	0.0058	4598	24	20.26	456.2		1.393	2	40	10.277	0.0058	1494.184	1.6234	22.9084	14.1114	2425.649	0.6535	0.7002
1.403	2	41.01	0.89	94.99	0.0058	4447	24	20.26	451.4		1.403	2	41	10.269	0.0058	1497.812	1.6698	22.9599	13.7498	2501.103	0.6265	0.7083
1.413	2	42.01	0.85	94.61	0.0053	4462	24	20.27	447.2		1.413	2	42	10.265	0.0053	1505.573	1.6659	22.9857	13.7977	2508.152	0.6288	0.7154
1.423	2	43.01	0.85	94.53	0.0045	4463	25	20.27	445.5		1.423	2	43	10.265	0.0045	1507.342	1.6656	23.9434	14.3752	2510.64	0.629	0.7184
1.433	2	44.01	0.8	94.65	0.0047	4475	24	20.27	443		1.433	2	44	10.26	0.0047	1503.958	1.6628	23.018	13.8431	2500.737	0.6306	0.7228
1.443	2	45.01	0.79	95.06	0.006	4596	23	20.27	444.8		1.443	2	45	10.259	0.006	1494.827	1.6268	22.0651	13.5633	2431.828	0.6515	0.7196
1.453	2	46.01	0.75	95.27	0.0058	4554	22	20.27	446		1.453	2	46	10.255	0.0058	1489.686	1.6399	21.1295	12.8849	2442.879	0.6439	0.7175
1.463	2	47.01	0.7	95.44	0.0039	4546	21	20.27	448.9		1.463	2	47	10.25	0.0039	1485.292	1.643	20.1974	12.2927	2440.395	0.6421	0.7125
1.473	2	48.01	0.75	95.63	0.0022	4564	21	20.28	451.7		1.473	2	48	10.255	0.0022	1481.937	1.6369	20.1691	12.3215	2425.776	0.6457	0.7078
1.483	2	49.01	0.85	95.71	0.0023	4571	20	20.27	451.9		1.483	2	49	10.265	0.0023	1481.669	1.6332	19.1547	11.7281	2419.91	0.6478	0.7074
1.493	2	50.01	0.85	95.65	0.0033	4577	19	20.28	450.8		1.493	2	50	10.265	0.0033	1482.953	1.6315	18.197	11.1538	2419.383	0.6488	0.7093
1.503	2	51.01	0.85	95.61	0.003	4576	18	20.28	453.1		1.503	2	51	10.265	0.003	1483.81	1.6318	17.2392	10.5648	2421.219	0.6486	0.7054
1.513	2	52.01	0.9	95.63	0.0027	4568	18	20.27	455		1.513	2	52	10.27	0.0027	1484.104	1.6333	17.2151	10.5399	2424.022	0.6477	0.7023
1.523	2	53.01	0.94	95.73	0.003	4520	16	20.27	456.9		1.523	2	53	10.274	0.003	1482.54	1.647	15.2851	9.2808	2441.674	0.6398	0.6991
1.533	2	54.01	1.02	95.65	0.0029	4539	15	20.28	457.3		1.533	2	54	10.282	0.0029	1485.409	1.64	14.2977	8.7181	2436.08	0.6438	0.6984
1.543	2	55.01	1.17	95.64	0.0017	4613	12	20.28	457.2		1.543	2	55	10.297	0.0017	1487.791	1.6159	11.3902	7.049	2404.073	0.6578	0.6986
1.553	2	56.01	1.32	95.51	0.0024	4636	14	20.28	454.8		1.553	2	56	10.312	0.0024	1492.762	1.6069	13.2329	8.2353	2398.656	0.6631	0.7026
1.563	2	57.01	1.42	95.77	0.002	4559	13	20.29	453.7		1.563	2	57	10.322	0.002	1488.607	1.6277	12.2535	7.5279	2423.07	0.651	0.7043
1.573	2	58.01	1.47	95.8	0.0017	4582	13	20.28	452.1		1.573	2	58	10.327	0.0017	1488.684	1.6202	12.2364	7.5524	2411.972	0.6553	0.7071
1.583	2	59.01	1.57	95.77	0.0014	4609	12	20.28	451.2		1.583	2	59	10.337	0.0014	1490.77	1.6108	11.2637	6.9927	2401.295	0.6608	0.7086
1.593	2	60.01	1.62	95.69	0.0012	4638	11	20.29	449.2		1.593	2	60	10.342	0.0012	1493.214	1.6016	10.3107	6.4376	2391.563	0.6661	0.7121
1.603	2	61.01	1.68	95.69	0.0017	4631	12	20.29	448.3		1.603	2	61	10.348	0.0017	1494.08	1.6027	11.2292	7.0064	2394.572	0.6655	0.7135
1.613	2	62.01	1.62	95.64	0.0031	4559	11	20.29	446.5		1.613	2	62	10.342	0.0031	1494.293	1.6246	10.3107	6.3466	2427.621	0.6528	0.7167
1.623	2	63.01	1.58	95.68	0.004	4564	11	20.29	444.8		1.623	2	63	10.338	0.004	1492.852	1.6238	10.3222	6.357	2424.024	0.6533	0.7196
1.633	2	64.01	1.62	95.61	0.0032	4549	11	20.28	443.7		1.633	2	64	10.342	0.0032	1494.941	1.6275	10.3107	6.3351	2433.075	0.6511	0.7215
1.643	2	65.01	1.57	95.76	0.0033	4511	10	20.29	444.7		1.643	2	65	10.337	0.0033	1490.985	1.6396	9.3864	5.7248	2444.613	0.6441	0.7198
1.653	2	66.01	1.48	95.47	0.0038	4484	10	20.29	442.2		1.653	2	66	10.328	0.0038	1495.944	1.6491	9.41	5.7061	2466.981	0.6386	0.7241
1.663	2	67.01	1.51	95.4	0.0063	4534	10	20.29	442.5		1.663	2	67	10.331	0.0063	1497.897	1.6337	9.4021	5.7551	2447.129	0.6475	0.7236
1.673	2	68.01	1.52	95.76	0.0067	4582	9	20.29	443.8		1.673	2	68	10.332	0.0067	1490.264	1.6194	8.4595	5.2238	2413.364	0.6558	0.7214
1.683	2	69.01	1.46	95.78	0.0071	4603	10	20.29	444.6		1.683	2	69	10.326	0.0071	1488.969	1.6142	9.4152	5.8326	2403.546	0.6588	0.72
1.693	2	70.01	1.36	95.82	0.0064	4561	10	20.29	443.6		1.693	2	70	10.316	0.0064	1486.67	1.6281	9.4415	5.7991	2420.447	0.6508	0.7217
1.703	2	71.01	1.35	95.78	0.0038	4606	9	20.29	442.2		1.703	2	71	10.315	0.0038	1487.383	1.6151	8.4998	5.2627	2402.247	0.6583	0.7241
1.713	2	72.01	1.31	95.82	0.0044	4618	9	20.29	444		1.713	2	72	10.311	0.0044	1485.949	1.6122	8.5093	5.278	2395.68	0.66	0.721
1.723	2	73.01	1.21	95.74	0.0065	4592	9	20.29	449.7		1.723	2	73	10.301	0.0065	1486.221	1.6214	8.5331	5.2629	2409.707	0.6547	0.7112
1.733	2	74.01	1.11	95.62	0.0082	4591	9	20.29	455.1		1.733	2	74	10.291	0.0082	1487.354	1.6232	8.557	5.2716	2414.322	0.6536	0.7021
1.743	2	75.01	1.02	95.54	0.0079	4586	9	20.29	456.6		1.743	2	75	10.282	0.0079	1487.773	1.6261	8.5786	5.2755	2419.299	0.6519	0.6996
1.753	2	76.01	0.97	95.59	0.0051	4644	9	20.29	458.4		1.753	2	76	10.277	0.0051	1485.975	1.61	8.5906	5.3358	2392.442	0.6612	0.6965
1.763	2	77.01	0.95	95.61	0.0061	4573	9	20.29	460.6		1.763	2	77	10.275	0.0061	1485.256	1.6311	8.5955	5.2699	2422.532	0.649	0.693
1.773	2	78.01	0.86	95.63	0.0066	4544	9	20.29	465.4		1.773	2	78	10.266	0.0066	1483.526	1.6411	8.6172	5.251	2434.577	0.6432	0.6854
1.783	2	79.01	0.73	95.49	0.007	4558	8	20.29	466.2		1.783	2	79	10.253	0.007	1484.651	1.639	7.6878	4.6905	2433.334	0.6444	0.6841
1.793	2	80.01	0.68	95.36	0.007	4580	9	20.3	467.7		1.793	2	80	10.248	0.007	1486.726	1.6333	8.6609	5.3028	2428.245	0.6477	0.6818
1.803	2	81.01	0.58	95.41	0.0069	4604	9	20.3	469.3		1.803	2	81	10.238	0.0069	1484.198	1.6278	8.6853	5.3356	2416.002	0.6509	0.6792
1.813	2	82.01	0.48	95.33	0.0086	4571	9	20.3	470.2		1.813	2	82	10.228	0.0086	1484.47	1.6391	8.7099	5.3137	2433.256	0.6443	0.6779
1.823	2	83.01	0.39	95.3	0.0079	4521	8	20.3	468.8		1.823	2	83	10.219	0.0079	1483.81	1.6555	7.7618	4.6884	2456.473	0.6349	0.6799
1.833	2	84.01	0.38	95.3	0.0063	4608	9	20.3	469.6		1.833	2	84	10.218	0.0063	1483.665	1.6298	8.7345	5.3591	2418.118	0.6498	0.6788
1.843	2	85.01	0.33	95.16	0.0059	4571	9	20.3	470.1		1.843	2	85	10.213	0.0059	1485.959	1.6415	8.7468	5.3284	2439.275	0.643	0.6779
1.853	2	86.01	0.33	95.1	0.0086	4547	9	20.3	469.3		1.853	2	86	10.213	0.0086	1487.258	1.6487	8.7468	5.3053	2452.033	0.6388	0.6792
1.863	2	87.01	0.24	95.22	0.0065	4546	9	20.31	468		1.863	2	87	10.204	0.0065	1483.355	1.6504	8.7691	5.3132	2448.199	0.6378	0.6812
1.873	2	88.01	0.28	95	0.0067	4538	9	20.3	468.5		1.873	2	88	10.208	0.0067	1488.698	1.6522	8.7592	5.3015	2459.619	0.6368	0.6805
1.883	2	89.01	0.31	94.94	0.0088	4508	9	20.31	468.2		1.883	2	89	10.211	0.0088	1490.439	1.6607	8.7517	5.2698	2475.223	0.6318	0.6809
1.893	2	90.01	0.35	94.92	0.0086	4558	10	20.3	467		1.893	2	90	10.215	0.0086	1491.459	1.6451	9.7132	5.9043	2453.585	0.6409	0.6827
1.903	2	91.01	0.33	95.08	0.0106	4608	9	20.3	466.1		1.903	2	91	10.213	0.0106	1487.691	1.6306	8.7468	5.3641	2425.867	0.6493	0.6843
1.913	2	92.01	0.34	95.23	0.0122	4585	9	20.3	466.4		1.913	2	92	10.214	0.0122	1484.593	1.6372	8.7443	5.3409	2430.638	0.6455	0.6837
1.923	2	93.01	0.35	95.18	0.0084	4542	10	20.3	469.9		1.923	2	93	10.215	0.0084	1485.818	1.6499	9.7132	5.8873	2451.4	0.6381	0.6783
1.933	2	94.01	0.4	95.14	0.0057	4509	10	20.31	471.4		1.933	2	94	10.22	0.0057	1487.411	1.659	9.6995	5.8467	2467.57	0.6328	0.6759
1.943	2	95.01	0.44	95.08	0.0085	4559	10	20.3	471.2		1.943	2	95	10.224	0.0085	1489.293	1.6433	9.6885	5.8956	2447.424	0.6419	0.6763
1.953	2	96.01	0.49	95.23	0.0082	4572	11	20.31	471.3		1.953	2	96	10.229	0.0082	1486.773	1.6387	10.6424	6.4945	2436.352	0.6446	0.676
1.963	2	97.01	0.49	95.3	0.0064	4565	11	20.31	466.4		1.963	2	97	10.229	0.0064	1485.262	1.6408	10.6424	6.4862	2436.958	0.6434	0.6837
1.973	2	98.01	0.55	95.14	0.0074	4515	11	20.31	462		1.973	2	98	10.235	0.0074	1489.594	1.6547	10.6244	6.4206	2464.879	0.6353	0.6907
1.983	2	99.01	0.59	95.26	0.005	4531	10	20.31	459.4		1.983	2	99	10.239	0.005	1487.578	1.6493	9.6477	5.8496	2453.441	0.6385	0.6949
1.993	2	100.01	0.65	95.35	0.0046	4454	11	20.31	454.9		1.993	2	100	10.245	0.0046	1486.506	1.6716	10.5945	6.3379	2484.854	0.6255	0.7024
2.003	2	101.01	0.74	95.26	0.0064	4459	11	20.31	452.6		2.003	2	101	10.254	0.0064	1489.757	1.6686	10.5677	6.3332	2485.829	0.6273	0.7063
2.013	2	102.01	0.89	95.3	0.0067	4473	10	20.32	450.1		2.013	2	102	10.269	0.0067	1491.07	1.6619	9.5666	5.7564	2478.039	0.6311	0.7104
2.023	2	103.01	0.79	95.28	0.0064	4454	11	20.32	448.6		2.023	2	103	10.259	0.0064	1490.051	1.6693	10.5529	6.3216	2487.38	0.6268	0.7129
2.033	2	104.01	0.79	95.25	0.0066	4474	10	20.31	448.5		2.033	2	104	10.259	0.0066	1490.7	1.6632	9.5935	5.768	2479.387	0.6304	0.7132
2.043	2	105.01	0.84	95.23	0.0065	4495	10	20.31	448.1		2.043	2	105	10.264	0.0065	1491.86	1.6561	9.58	5.7848	2470.629	0.6345	0.714
2.053	2	106.01	0.84	95.28	0.0056	4417	10	20.32	448.7		2.053	2	106	10.264	0.0056	1490.777	1.6799	9.58	5.7029	2504.305	0.6207	0.7129
2.063	2	107.01	0.79	95.26	0.0057	4547	9	20.32	449.7		2.063	2	107	10.259	0.0057	1490.484	1.6413	8.6342	5.2606	2446.333	0.6431	0.7112
2.073	2	108.01	0.74	95.22	0.0054	4498	10	20.31	450.3		2.073	2	108	10.254	0.0054	1490.624	1.6568	9.607	5.7986	2469.639	0.6341	0.7101
2.083	2	109.01	0.74	95.25	0.0037	4429	10	20.31	450.7		2.083	2	109	10.254	0.0037	1489.974	1.6778	9.607	5.7259	2499.885	0.6219	0.7095
2.093	2	110.01	0.74	95.34	0.0035	4494	9	20.31	448.6		2.093	2	110	10.254	0.0035	1488.028	1.658	8.6463	5.2149	2467.135	0.6334	0.713
2.103	2	111.01	0.58	95.35	0.0021	4519	10	20.32	444.1		2.103	2	111	10.238	0.0021	1485.49	1.653	9.6504	5.8379	2455.583	0.6363	0.7208
2.113	2	112.01	0.64	95.21	0.0021	4474	10	20.33	441.1		2.113	2	112	10.244	0.0021	1489.386	1.6657	9.6341	5.7839	2480.829	0.629	0.7261
2.123	2	113.01	0.58	94.97	0.0024	4422	10	20.32	437.8		2.123	2	113	10.238	0.0024	1493.726	1.6826	9.6504	5.7354	2513.323	0.6191	0.7321
2.133	2	114.01	0.58	95.01	0.0022	4493	9	20.32	435.7		2.133	2	114	10.238	0.0022	1492.855	1.6609	8.6853	5.2293	2479.458	0.6317	0.7359
2.143	2	115.01	0.59	95.08	0.0022	4487	9	20.32	434.2		2.143	2	115	10.239	0.0022	1491.478	1.6625	8.6829	5.2227	2479.64	0.6308	0.7385
2.153	2	116.01	0.58	95.07	0.0041	4450	9	20.32	433.7		2.153	2	116	10.238	0.0041	1491.55	1.674	8.6853	5.1885	2496.817	0.6241	0.7394
2.163	2	117.01	0.54	95.18	0.0032	4508	10	20.32	434.1		2.163	2	117	10.234	0.0032	1488.582	1.657	9.6613	5.8306	2466.583	0.634	0.7387
2.173	2	118.01	0.56	94.97	0.0053	4464	10	20.32	433.2		2.173	2	118	10.236	0.0053	1493.434	1.67	9.6558	5.7819	2494.067	0.6264	0.7403
2.183	2	119.01	0.53	95.21	0.0048	4466	9	20.32	431.6		2.183	2	119	10.233	0.0048	1487.787	1.6699	8.6976	5.2084	2484.456	0.6265	0.7433
2.193	2	120.01	0.53	95.12	0.0053	4513	10	20.33	428		2.193	2	120	10.233	0.0053	1489.736	1.6557	9.664	5.8369	2466.493	0.6348	0.7501
2.203	2	121.01	0.58	95.17	0.0063	4495	9	20.32	425.9		2.203	2	121	10.238	0.0063	1489.38	1.6603	8.6853	5.2313	2472.786	0.6321	0.7541
2.213	2	122.01	0.59	95.23	0.0057	4403	9	20.33	422.2		2.213	2	122	10.239	0.0057	1488.227	1.6883	8.6829	5.143	2512.58	0.6158	0.7611
2.223	2	123.01	0.64	95.08	0.0047	4454	9	20.32	423.5		2.223	2	123	10.244	0.0047	1492.207	1.6718	8.6707	5.1865	2494.627	0.6254	0.7587
2.233	2	124.01	0.68	95.15	0.0042	4437	9	20.32	423.6		2.233	2	124	10.248	0.0042	1491.269	1.6763	8.6609	5.1666	2499.854	0.6228	0.7585
2.243	2	125.01	0.69	95.23	0.004	4419	9	20.32	421.4		2.243	2	125	10.249	0.004	1489.68	1.6817	8.6585	5.1486	2505.204	0.6197	0.7627
2.253	2	126.01	0.78	95.28	0.0041	4449	9	20.33	421.5		2.253	2	126	10.258	0.0041	1489.906	1.671	8.6366	5.1685	2489.657	0.6259	0.7626
2.263	2	127.01	0.88	95.37	0.0029	4502	9	20.32	419.9		2.263	2	127	10.268	0.0029	1489.411	1.6533	8.6124	5.2091	2462.471	0.6361	0.7657
2.273	2	128.01	0.91	95.32	0.0033	4437	9	20.33	420.9		2.273	2	128	10.271	0.0033	1490.928	1.6726	8.6051	5.1448	2493.685	0.625	0.7637
2.283	2	129.01	0.96	95.24	0.0057	4429	10	20.33	419.8		2.283	2	129	10.276	0.0057	1493.388	1.6742	9.5478	5.7029	2500.249	0.624	0.7659
2.293	2	130.01	1.05	95.25	0.0051	4453	9	20.33	404.7		2.293	2	130	10.285	0.0051	1494.478	1.6654	8.5714	5.1467	2488.92	0.6291	0.7968
2.303	2	131.01	1.16	95.25	0.0054	4355	9	20.32	403.5		2.303	2	131	10.296	0.0054	1496.077	1.6939	8.545	5.0446	2534.18	0.6126	0.7992
2.313	2	132.01	1.31	95.27	0.0051	4403	9	20.33	404.3		2.313	2	132	10.311	0.0051	1497.821	1.6765	8.5093	5.0756	2511.121	0.6227	0.7975
2.323	2	133.01	1.42	95.39	0.005	4437	10	20.33	402.3		2.323	2	133	10.322	0.005	1496.81	1.6643	9.4257	5.6635	2491.154	0.6298	0.8019
2.333	2	134.01	1.53	95.34	0.0052	4366	9	20.33	402.9		2.333	2	134	10.333	0.0052	1499.492	1.6844	8.4572	5.0209	2525.732	0.6181	0.8004
2.343	2	135.01	1.75	95.44	0.0034	4368	9	20.33	403		2.343	2	135	10.355	0.0034	1500.507	1.6802	8.4055	5.0027	2521.141	0.6205	0.8002
2.353	2	136.01	1.87	95.55	0.0033	4435	9	20.34	404.1		2.353	2	136	10.367	0.0033	1499.855	1.6577	8.3776	5.0537	2486.299	0.6336	0.7979
2.363	2	137.01	2.13	95.62	0.0025	4486	9	20.34	406		2.363	2	137	10.393	0.0025	1502.096	1.6382	8.3174	5.0771	2460.736	0.6449	0.794
2.373	2	138.01	2.13	95.38	0.0052	4500	9	20.33	409		2.373	2	138	10.393	0.0052	1507.324	1.634	8.3174	5.0901	2463.011	0.6473	0.7876
2.383	2	139.01	2.13	95.36	0.0056	4508	9	20.33	408.1		2.383	2	139	10.393	0.0056	1507.761	1.6317	8.3174	5.0975	2460.142	0.6487	0.7896
2.393	2	140.01	2.27	95.66	0.0083	4484	8	20.34	408.2		2.393	2	140	10.407	0.0083	1503.25	1.6366	7.3646	4.5	2460.211	0.6458	0.7894
2.403	2	141.01	2.84	95.24	0.0015	4418	8	20.34	406.8		2.403	2	141	10.464	0.0015	1520.709	1.6475	7.2499	4.4006	2505.301	0.6395	0.7923
2.413	2	142.01	3.77	95.93	0.0005	4463	9	20.34	403.1		2.413	2	142	10.557	0.0005	1518.993	1.6195	7.9514	4.9097	2460.066	0.6557	0.8001
2.423	2	143.01	3.94	96.66	0.0018	4397	9	20.34	399.2		2.423	2	143	10.574	0.0018	1505.624	1.6366	7.9148	4.8361	2464.139	0.6458	0.8085
2.433	2	144.01	4.11	98.35	0.0001	4398	8	20.34	386.7		2.433	2	144	10.591	0.0001	1472.608	1.6337	7.003	4.2866	2405.793	0.6475	0.8368
2.443	2	145.01	4.12	97.37	0.0001	4427	9	20.34	366.8		2.443	2	145	10.592	0.0001	1493.093	1.6249	7.8763	4.8474	2426.067	0.6526	0.8857
2.453	2	146.01	3.83	96.47	0.0006	4451	8	20.35	333.1		2.453	2	146	10.563	0.0006	1508.138	1.6222	7.0564	4.35	2446.461	0.6542	0.9826
2.463	2	147.01	3.57	96.44	0.0011	4425	8	20.35	282.9		2.463	2	147	10.537	0.0011	1505.071	1.6339	7.1065	4.3493	2459.197	0.6474	1.1719
2.473	2	148.01	3.11	96.8	0.0023	4427	8	20.34	223.4		2.473	2	148	10.491	0.0023	1490.834	1.6405	7.1964	4.3867	2445.719	0.6436	1.5112
2.483	2	149.01	5.25	97.38	0.0012	4498	8	20.35	175.2		2.483	2	149	10.705	0.0012	1508.809	1.587	6.7914	4.2795	2394.453	0.6746	1.9634
2.493	2	150.01	6.03	999	0	7661	8	20.35	157.4		2.493	2	150	10.783	0	110.8712	0.9327	6.6518	7.1314	103.4143	1.0541	2.2039
2.503	3	0.81	6.6	999	0	4732	8	20.35	172.8		2.503	3	0.8	10.84	0	111.4573	1.5026	6.5523	4.3607	167.4725	0.7236	1.9934
2.513	3	1.81	7.5	999	0	4389	8	20.35	217.2		2.513	3	1.8	10.93	0	112.3827	1.5857	6.3995	4.0359	178.1995	0.6754	1.5579
2.523	3	2.81	7.44	103.25	0.0001	4374	8	20.35	276		2.523	3	2.8	10.924	0.0001	1422.026	1.5909	6.4095	4.0288	2262.32	0.6723	1.2034
2.533	3	3.81	7.09	97.95	0.001	4508	8	20.35	335		2.533	3	3.8	10.889	0.001	1522.511	1.5573	6.4685	4.1536	2371.051	0.6918	0.9768
2.543	3	4.81	5.48	999	0	4691	8	20.35	382.6		2.543	3	4.8	10.728	0	110.3057	1.5294	6.7498	4.4134	168.7018	0.708	0.8464
2.553	3	5.81	2.45	999	0	4558	8	20.35	418.2		2.553	3	5.8	10.425	0	107.1902	1.612	7.3281	4.5461	172.7855	0.6601	0.7691
2.563	3	6.81	1.45	94.21	0.001	4574	8	20.35	440.2		2.563	3	6.8	10.325	0.001	1523.311	1.6229	7.5343	4.6426	2472.123	0.6538	0.7276
2.573	3	7.81	0.77	94.4	0.0015	4512	8	20.35	449.3		2.573	3	7.8	10.257	0.0015	1509.048	1.6521	7.6791	4.6481	2493.074	0.6368	0.7119
2.583	3	8.81	0.48	94.92	0.0031	4574	8	20.35	449.9		2.583	3	8.8	10.228	0.0031	1493.357	1.6383	7.7421	4.7258	2446.496	0.6449	0.7107
2.593	3	9.81	0.32	95.46	0.0084	4545	8	20.35	450.3		2.593	3	9.8	10.212	0.0084	1479.357	1.6495	7.7771	4.715	2440.13	0.6384	0.7101
2.603	3	10.81	0.28	95.32	0.0098	4554	9	20.35	449.5		2.603	3	10.8	10.208	0.0098	1481.783	1.6474	8.7592	5.3169	2441.106	0.6396	0.7115
2.613	3	11.81	0.28	94.99	0.0148	4510	8	20.35	448		2.613	3	11.8	10.208	0.0148	1488.915	1.6606	7.7859	4.6886	2472.519	0.6319	0.714
2.623	3	12.81	0.23	94.99	0.0155	4552	8	20.35	445.3		2.623	3	12.8	10.203	0.0155	1488.186	1.6488	7.7969	4.7288	2453.744	0.6387	0.7187
2.633	3	13.81	0.23	94.98	0.0144	4533	8	20.36	444.7		2.633	3	13.8	10.203	0.0144	1488.403	1.6545	7.7969	4.7126	2462.569	0.6354	0.7197
2.643	3	14.81	0.23	94.92	0.0173	4534	8	20.36	443.7		2.643	3	14.8	10.203	0.0173	1489.707	1.6542	7.7969	4.7134	2464.279	0.6356	0.7215
2.653	3	15.81	0.23	94.97	0.0157	4541	8	20.36	445.4		2.653	3	15.8	10.203	0.0157	1488.62	1.6521	7.7969	4.7194	2459.357	0.6368	0.7185
2.663	3	16.81	0.16	94.97	0.0148	4502	7	20.35	446.2		2.663	3	16.8	10.196	0.0148	1487.599	1.665	6.8359	4.1056	2476.843	0.6294	0.7171
2.673	3	17.81	0.16	94.87	0.0125	4531	8	20.35	447.8		2.673	3	17.8	10.196	0.0125	1489.772	1.6562	7.8124	4.7169	2467.422	0.6344	0.7143
2.683	3	18.81	0.06	94.87	0.0125	4567	8	20.36	448.4		2.683	3	18.8	10.186	0.0125	1488.311	1.6471	7.8346	4.7566	2451.383	0.6397	0.7134
2.693	3	19.81	0.15	94.91	0.0114	4542	8	20.36	449.9		2.693	3	19.8	10.195	0.0114	1488.756	1.6531	7.8146	4.7272	2461.066	0.6363	0.7108
2.703	3	20.81	0.19	94.97	0.0106	4483	8	20.36	451.9		2.703	3	20.8	10.199	0.0106	1488.036	1.6703	7.8058	4.6733	2485.431	0.6263	0.7074
2.713	3	21.81	0.18	94.93	0.0084	4532	8	20.36	454.8		2.713	3	21.8	10.198	0.0084	1488.759	1.6556	7.808	4.7161	2464.814	0.6348	0.7026
2.723	3	22.81	0.18	94.93	0.0077	4480	8	20.36	455.2		2.723	3	22.8	10.198	0.0077	1488.759	1.6714	7.808	4.6717	2488.244	0.6257	0.7019
2.733	3	23.81	0.24	94.89	0.0078	4402	8	20.36	456		2.733	3	23.8	10.204	0.0078	1490.505	1.6944	7.7947	4.6003	2525.524	0.6123	0.7006
2.743	3	24.81	0.24	94.9	0.0087	4414	7	20.36	455.2		2.743	3	24.8	10.204	0.0087	1490.288	1.6907	6.8204	4.0341	2519.591	0.6145	0.7018
2.753	3	25.81	0.29	94.9	0.0078	4413	7	20.36	454.4		2.753	3	25.8	10.209	0.0078	1491.018	1.6902	6.8108	4.0297	2520.054	0.6148	0.7033
2.763	3	26.81	0.29	94.89	0.0074	4337	8	20.37	454.6		2.763	3	26.8	10.209	0.0074	1491.236	1.714	7.7837	4.5412	2556.005	0.6009	0.7029
2.773	3	27.81	0.33	94.86	0.0075	4494	8	20.36	456.6		2.773	3	27.8	10.213	0.0075	1492.474	1.6646	7.7749	4.6706	2484.441	0.6296	0.6996
2.783	3	28.81	0.29	94.99	0.0071	4441	8	20.37	456.7		2.783	3	28.8	10.209	0.0071	1489.061	1.6815	7.7837	4.629	2503.853	0.6198	0.6994
2.793	3	29.81	0.3	94.89	0.0061	4357	8	20.37	457.3		2.793	3	29.8	10.21	0.0061	1491.382	1.7075	7.7815	4.5572	2546.564	0.6047	0.6985
2.803	3	30.81	0.29	94.94	0.0061	4413	8	20.37	456.4		2.803	3	30.8	10.209	0.0061	1490.147	1.6902	7.7837	4.6053	2518.583	0.6148	0.6999
2.813	3	31.81	0.3	94.96	0.0076	4447	8	20.37	448.4		2.813	3	31.8	10.21	0.0076	1489.859	1.6795	7.7815	4.6333	2502.198	0.6209	0.7134
2.823	3	32.81	0.25	94.9	0.0084	4457	8	20.37	446.6		2.823	3	32.8	10.205	0.0084	1490.434	1.6772	7.7925	4.6461	2499.813	0.6223	0.7164
2.833	3	33.81	0.24	94.92	0.0082	4469	8	20.36	443.3		2.833	3	33.8	10.204	0.0082	1489.853	1.6737	7.7947	4.6571	2493.609	0.6243	0.7221
2.843	3	34.81	0.24	94.95	0.0072	4383	8	20.37	440.7		2.843	3	34.8	10.204	0.0072	1489.2	1.7003	7.7947	4.5842	2532.154	0.6088	0.7268
2.853	3	35.81	0.24	94.93	0.006	4382	8	20.37	437.7		2.853	3	35.8	10.204	0.006	1489.635	1.7007	7.7947	4.5834	2533.361	0.6087	0.7322
2.863	3	36.81	0.22	94.88	0.006	4436	8	20.37	433.6		2.863	3	36.8	10.202	0.006	1490.431	1.6842	7.7992	4.6308	2510.175	0.6182	0.7397
2.873	3	37.81	0.26	94.9	0.0063	4426	8	20.37	427		2.873	3	37.8	10.206	0.0063	1490.58	1.6866	7.7903	4.6189	2514.047	0.6168	0.752
2.883	3	38.81	0.19	94.9	0.0062	4484	8	20.36	423.8		2.883	3	38.8	10.199	0.0062	1489.557	1.67	7.8058	4.6742	2487.519	0.6265	0.7581
2.893	3	39.81	0.19	94.87	0.0062	4461	9	20.36	419.3		2.893	3	39.8	10.199	0.0062	1490.21	1.677	8.7815	5.2364	2499.081	0.6224	0.7669
2.903	3	40.81	0.15	94.81	0.0061	4456	9	20.36	416.3		2.903	3	40.8	10.195	0.0061	1490.933	1.6792	8.7914	5.2355	2503.561	0.6211	0.7728
2.913	3	41.81	0.14	94.85	0.0057	4400	9	20.37	413.4		2.913	3	41.8	10.194	0.0057	1489.915	1.6967	8.7939	5.183	2527.93	0.611	0.7787
2.923	3	42.81	0.15	94.84	0.0057	4511	8	20.37	411.6		2.923	3	42.8	10.195	0.0057	1490.279	1.6624	7.8146	4.7007	2477.49	0.6308	0.7823
2.933	3	43.81	0.21	94.84	0.0056	4484	9	20.37	409.5		2.933	3	43.8	10.201	0.0056	1491.156	1.6696	8.7765	5.2565	2489.7	0.6267	0.7865
2.943	3	44.81	0.16	94.84	0.0054	4505	9	20.35	408		2.943	3	44.8	10.196	0.0054	1490.426	1.6641	8.789	5.2816	2480.195	0.6299	0.7898
2.953	3	45.81	0.15	94.89	0.0049	4499	9	20.36	406		2.953	3	45.8	10.195	0.0049	1489.191	1.6661	8.7914	5.2768	2481.092	0.6287	0.7939
2.963	3	46.81	0.22	94.86	0.0039	4412	9	20.36	406.8		2.963	3	46.8	10.202	0.0039	1490.867	1.6916	8.774	5.1867	2521.99	0.6139	0.7923
2.973	3	47.81	0.22	94.83	0.0032	4404	8	20.36	408.6		2.973	3	47.8	10.202	0.0032	1491.52	1.6941	7.7992	4.6037	2526.809	0.6125	0.7884
2.983	3	48.81	0.23	94.82	0.0035	4411	9	20.35	409.8		2.983	3	48.8	10.203	0.0035	1491.885	1.6918	8.7716	5.1848	2523.929	0.6138	0.786
2.993	3	49.81	0.33	94.86	0.0057	4420	8	20.36	412.5		2.993	3	49.8	10.213	0.0057	1492.474	1.6873	7.7749	4.6079	2518.288	0.6164	0.7805
3.003	3	50.81	0.3	94.9	0.005	4424	9	20.36	412.2		3.003	3	50.8	10.21	0.005	1491.164	1.6866	8.7542	5.1905	2514.969	0.6168	0.7811
3.013	3	51.81	0.32	94.89	0.0058	4508	8	20.36	412.3		3.013	3	51.8	10.212	0.0058	1491.674	1.6606	7.7771	4.6834	2477.031	0.6319	0.781
3.023	3	52.81	0.31	94.89	0.0055	4481	9	20.36	413.9		3.023	3	52.8	10.211	0.0055	1491.528	1.6689	8.7517	5.244	2489.244	0.6271	0.7776
3.033	3	53.81	0.24	94.89	0.0062	4445	9	20.35	411.2		3.033	3	53.8	10.204	0.0062	1490.505	1.6811	8.7691	5.2163	2505.674	0.62	0.7831
3.043	3	54.81	0.34	94.85	0.0058	4419	9	20.35	411.4		3.043	3	54.8	10.214	0.0058	1492.838	1.6875	8.7443	5.1819	2519.118	0.6163	0.7826
3.053	3	55.81	0.44	94.86	0.0067	4436	8	20.35	409.2		3.053	3	55.8	10.224	0.0067	1494.082	1.6806	7.7508	4.612	2510.908	0.6203	0.7872
3.063	3	56.81	0.49	94.84	0.0067	4452	8	20.35	407.9		3.063	3	56.8	10.229	0.0067	1495.249	1.6748	7.7399	4.6213	2504.295	0.6236	0.79
3.073	3	57.81	0.57	94.84	0.0067	4437	9	20.35	407.4		3.073	3	57.8	10.237	0.0067	1496.419	1.6781	8.6878	5.1771	2511.182	0.6217	0.7909
3.083	3	58.81	0.59	94.87	0.0063	4451	8	20.36	406.2		3.083	3	58.8	10.239	0.0063	1496.055	1.6735	7.7181	4.612	2503.655	0.6244	0.7935
3.093	3	59.81	0.78	94.89	0.0067	4363	8	20.36	406.3		3.093	3	59.8	10.258	0.0067	1498.393	1.6976	7.677	4.5221	2543.743	0.6104	0.7933
3.103	3	60.81	0.83	94.99	0.0058	4457	9	20.37	405.7		3.103	3	60.8	10.263	0.0058	1496.937	1.6678	8.6245	5.1713	2496.532	0.6277	0.7946
3.113	3	61.81	0.83	95.05	0.005	4444	9	20.37	407.9		3.113	3	61.8	10.263	0.005	1495.628	1.6717	8.6245	5.159	2500.289	0.6254	0.79
3.123	3	62.81	0.81	95.01	0.0063	4456	9	20.36	408.2		3.123	3	62.8	10.261	0.0063	1496.209	1.6684	8.6293	5.1722	2496.26	0.6274	0.7893
3.133	3	63.81	0.79	94.9	0.0071	4451	9	20.36	410.9		3.133	3	63.8	10.259	0.0071	1498.32	1.6702	8.6342	5.1694	2502.558	0.6263	0.7838
3.143	3	64.81	0.78	94.82	0.0079	4351	10	20.36	411.8		3.143	3	64.8	10.258	0.0079	1499.927	1.7014	9.5962	5.6401	2552	0.6082	0.7819
3.153	3	65.81	0.78	94.69	0.0064	4391	9	20.36	412.5		3.153	3	65.8	10.258	0.0064	1502.783	1.6889	8.6366	5.1137	2538.056	0.6155	0.7804
3.163	3	66.81	0.71	94.65	0.0061	4388	9	20.37	411.8		3.163	3	66.8	10.251	0.0061	1502.638	1.691	8.6536	5.1175	2540.948	0.6143	0.782
3.173	3	67.81	0.69	94.61	0.0075	4468	9	20.36	411.4		3.173	3	67.8	10.249	0.0075	1503.227	1.6667	8.6585	5.195	2505.404	0.6284	0.7827
3.183	3	68.81	0.59	94.74	0.0106	4448	10	20.37	410.9		3.183	3	68.8	10.239	0.0106	1498.902	1.6744	9.6477	5.7618	2509.797	0.6239	0.7838
3.193	3	69.81	0.53	94.75	0.0106	4480	10	20.37	411.6		3.193	3	69.8	10.233	0.0106	1497.804	1.6656	9.664	5.802	2494.8	0.629	0.7823
3.203	3	70.81	0.43	94.69	0.0108	4523	9	20.37	412.8		3.203	3	70.8	10.223	0.0108	1497.656	1.6543	8.7221	5.2725	2477.524	0.6356	0.7798
3.213	3	71.81	0.38	94.8	0.0113	4436	9	20.36	413.2		3.213	3	71.8	10.218	0.0113	1494.515	1.6816	8.7345	5.1943	2513.112	0.6197	0.7791
3.223	3	72.81	0.32	94.8	0.0119	4502	9	20.36	415.6		3.223	3	72.8	10.212	0.0119	1493.637	1.6624	8.7493	5.2631	2483.001	0.6309	0.7743
3.233	3	73.81	0.27	94.82	0.0121	4478	10	20.36	414.8		3.233	3	73.8	10.207	0.0121	1492.47	1.6705	9.7352	5.8277	2493.156	0.6262	0.7757
3.243	3	74.81	0.22	94.68	0.012	4475	9	20.36	414.5		3.243	3	74.8	10.202	0.012	1494.798	1.6722	8.774	5.2469	2499.638	0.6252	0.7764
3.253	3	75.81	0.12	94.58	0.0116	4450	10	20.37	412.5		3.253	3	75.8	10.192	0.0116	1495.524	1.6815	9.7766	5.8141	2514.769	0.6198	0.7805
3.263	3	76.81	0.07	94.6	0.0109	4492	9	20.37	410.5		3.263	3	76.8	10.187	0.0109	1494.352	1.6695	8.8114	5.2778	2494.825	0.6267	0.7845
3.273	3	77.81	-0.07	94.51	0.0128	4426	10	20.36	413.4		3.273	3	77.8	10.173	0.0128	1494.271	1.6921	9.8294	5.809	2528.449	0.6136	0.7786
3.283	3	78.81	-0.12	94.47	0.0131	4446	10	20.37	414.6		3.283	3	78.8	10.168	0.0131	1494.415	1.6867	9.8433	5.8357	2520.679	0.6167	0.7763
3.293	3	79.81	-0.14	94.44	0.0121	4474	10	20.36	416.7		3.293	3	79.8	10.166	0.0121	1494.78	1.6785	9.8489	5.8679	2508.917	0.6215	0.7721
3.303	3	80.81	-0.21	94.51	0.0118	4475	10	20.36	420.8		3.303	3	80.8	10.159	0.0118	1492.215	1.6793	9.8685	5.8766	2505.88	0.6211	0.7639
3.313	3	81.81	-0.22	94.52	0.0116	4471	10	20.36	424		3.313	3	81.8	10.158	0.0116	1491.849	1.6807	9.8713	5.8734	2507.342	0.6202	0.7577
3.323	3	82.81	-0.17	94.5	0.0117	4486	11	20.37	425.7		3.323	3	82.8	10.163	0.0117	1493.022	1.6753	10.843	6.4724	2501.224	0.6234	0.7545
3.333	3	83.81	-0.18	94.49	0.0099	4448	11	20.37	427.1		3.333	3	83.8	10.162	0.0099	1493.094	1.6871	10.8461	6.4288	2519.017	0.6165	0.7518
3.343	3	84.81	-0.17	94.38	0.0086	4467	11	20.36	429.6		3.343	3	84.8	10.163	0.0086	1495.659	1.6811	10.843	6.45	2514.344	0.62	0.747
3.353	3	85.81	-0.16	94.21	0.009	4379	12	20.37	428.6		3.353	3	85.8	10.164	0.009	1499.557	1.7083	11.8254	6.9223	2561.688	0.6042	0.7489
3.363	3	86.81	-0.16	94.16	0.0082	4339	12	20.37	426.8		3.363	3	86.8	10.164	0.0082	1500.664	1.721	11.8254	6.8714	2582.597	0.5969	0.7524
3.373	3	87.81	-0.06	94.4	0.0089	4439	12	20.36	425.9		3.373	3	87.8	10.174	0.0089	1496.837	1.6879	11.7919	6.9861	2526.512	0.6161	0.7541
3.383	3	88.81	-0.05	94.57	0.0084	4409	13	20.37	422.2		3.383	3	88.8	10.175	0.0084	1493.249	1.6971	12.7709	7.5254	2534.121	0.6108	0.7613
3.393	3	89.81	0.11	94.69	0.0082	4479	13	20.37	422.2		3.393	3	89.8	10.191	0.0082	1492.968	1.6728	12.7131	7.5999	2497.448	0.6248	0.7611
3.403	3	90.81	0.17	94.85	0.0087	4489	13	20.37	421		3.403	3	90.8	10.197	0.0087	1490.354	1.6688	12.6916	7.6053	2487.068	0.6272	0.7634
3.413	3	91.81	0.23	94.87	0.007	4414	14	20.36	420.3		3.413	3	91.8	10.203	0.007	1490.795	1.6908	13.6447	8.0698	2520.696	0.6144	0.7648
3.423	3	92.81	0.23	94.85	0.0073	4401	13	20.37	425.2		3.423	3	92.8	10.203	0.0073	1491.231	1.6949	12.67	7.4755	2527.465	0.612	0.7554
3.433	3	93.81	0.23	94.89	0.0078	4421	14	20.37	423.3		3.433	3	93.8	10.203	0.0078	1490.359	1.6887	13.6447	8.0801	2516.722	0.6156	0.7591
3.443	3	94.81	0.23	94.92	0.0065	4408	13	20.36	420.8		3.443	3	94.8	10.203	0.0065	1489.707	1.6927	12.67	7.4851	2521.634	0.6133	0.764
3.453	3	95.81	0.17	94.82	0.0067	4462	13	20.37	419.1		3.453	3	95.8	10.197	0.0067	1491.007	1.677	12.6916	7.5679	2500.451	0.6224	0.7672
3.463	3	96.81	0.12	94.66	0.0068	4452	13	20.37	419.5		3.463	3	96.8	10.192	0.0068	1493.771	1.6809	12.7095	7.5611	2510.901	0.6201	0.7664
3.473	3	97.81	0.06	94.56	0.0077	4419	14	20.37	420.4		3.473	3	97.8	10.186	0.0077	1495.083	1.6921	13.7105	8.1026	2529.841	0.6136	0.7646
3.483	3	98.81	0.06	94.51	0.0082	4411	14	20.37	421.1		3.483	3	98.8	10.186	0.0082	1496.181	1.6946	13.7105	8.0907	2535.422	0.6122	0.7634
3.493	3	99.81	0	94.46	0.0096	4417	14	20.36	420.6		3.493	3	99.8	10.18	0.0096	1496.399	1.6937	13.7338	8.1086	2534.49	0.6127	0.7643
3.503	3	100.81	0.11	94.45	0.0089	4376	16	20.37	420.3		3.503	3	100.8	10.191	0.0089	1498.236	1.7047	15.6469	9.1786	2554.062	0.6063	0.7649
3.513	3	101.81	0.01	94.25	0.0087	4375	16	20.36	419.2		3.513	3	101.8	10.181	0.0087	1501.18	1.7067	15.6913	9.194	2562.066	0.6052	0.767
3.523	3	102.81	-0.02	94.16	0.0083	4463	16	20.37	419.3		3.523	3	102.8	10.178	0.0083	1502.731	1.6798	15.7047	9.3489	2524.355	0.6207	0.7669
3.533	3	103.81	0.03	94.36	0.0097	4447	17	20.37	419.9		3.533	3	103.8	10.183	0.0097	1499.043	1.6839	16.6626	9.895	2524.299	0.6184	0.7656
3.543	3	104.81	-0.02	94.45	0.0095	4446	17	20.36	420.5		3.543	3	104.8	10.178	0.0095	1496.325	1.6851	16.6862	9.9024	2521.421	0.6177	0.7645
3.553	3	105.81	-0.07	94.44	0.0094	4445	18	20.36	420.7		3.553	3	105.8	10.173	0.0094	1495.809	1.6862	17.6929	10.4927	2522.253	0.617	0.7641
3.563	3	106.81	-0.09	94.34	0.0116	4449	16	20.37	421.1		3.563	3	106.8	10.171	0.0116	1497.718	1.6853	15.7359	9.3371	2524.118	0.6176	0.7633
3.573	3	107.81	-0.12	94.4	0.0124	4421	17	20.37	422.4		3.573	3	107.8	10.168	0.0124	1495.954	1.6945	16.7337	9.8754	2534.865	0.6123	0.7608
3.583	3	108.81	-0.12	94.42	0.0127	4459	16	20.37	423.2		3.583	3	108.8	10.168	0.0127	1495.514	1.6827	15.7493	9.3594	2516.541	0.6191	0.7592
3.593	3	109.81	-0.17	94.29	0.0121	4411	15	20.36	425.3		3.593	3	109.8	10.163	0.0121	1497.642	1.6984	14.786	8.7057	2543.641	0.61	0.7551
3.603	3	110.81	-0.07	94.13	0.012	4397	14	20.37	425.4		3.603	3	110.8	10.173	0.012	1502.659	1.7011	13.7611	8.0894	2556.226	0.6084	0.755
3.613	3	111.81	-0.1	93.79	0.0104	4325	13	20.37	424.7		3.613	3	111.8	10.17	0.0104	1509.798	1.7244	12.7891	7.4164	2603.529	0.5949	0.7564
3.623	3	112.81	0	93.84	0.011	4309	13	20.37	421.3		3.623	3	112.8	10.18	0.011	1510.162	1.7279	12.7528	7.3807	2609.337	0.5929	0.763
3.633	3	113.81	-0.06	94.2	0.0165	4435	12	20.37	419.2		3.633	3	113.8	10.174	0.0165	1501.254	1.6891	11.7919	6.981	2535.826	0.6153	0.7671
3.643	3	114.81	-0.07	94.48	0.0127	4430	12	20.37	415.4		3.643	3	114.8	10.173	0.0127	1494.93	1.6909	11.7952	6.9759	2527.708	0.6144	0.7747
3.653	3	115.81	-0.04	94.48	0.0122	4423	12	20.37	413.2		3.653	3	115.8	10.176	0.0122	1495.371	1.6925	11.7852	6.9631	2530.956	0.6134	0.779
3.663	3	116.81	-0.12	94.43	0.0123	4423	10	20.37	412		3.663	3	116.8	10.168	0.0123	1495.294	1.6939	9.8433	5.8112	2532.817	0.6126	0.7814
3.673	3	117.81	-0.07	94.41	0.0134	4444	11	20.37	411.1		3.673	3	117.8	10.173	0.0134	1496.469	1.6865	10.8123	6.411	2523.828	0.6169	0.7833
3.683	3	118.81	-0.06	94.41	0.013	4458	11	20.37	410.6		3.683	3	118.8	10.174	0.013	1496.617	1.682	10.8092	6.4263	2517.371	0.6195	0.7844
3.693	3	119.81	-0.09	94.29	0.0134	4409	10	20.37	411		3.693	3	119.8	10.171	0.0134	1498.821	1.6977	9.8349	5.793	2544.577	0.6104	0.7835
3.703	3	120.81	-0.06	94.22	0.0131	4439	9	20.36	411		3.703	3	120.8	10.174	0.0131	1500.811	1.6879	8.8439	5.2396	2533.221	0.6161	0.7835
3.713	3	121.81	0	94.14	0.0133	4447	9	20.36	409.9		3.713	3	121.8	10.18	0.0133	1503.471	1.6844	8.8289	5.2414	2532.501	0.6181	0.7857
3.723	3	122.81	-0.01	94.15	0.0132	4421	9	20.37	408.5		3.723	3	122.8	10.179	0.0132	1503.101	1.6927	8.8314	5.2175	2544.223	0.6133	0.7887
3.733	3	123.81	-0.06	94.11	0.0115	4333	9	20.37	408.3		3.733	3	123.8	10.174	0.0115	1503.251	1.7212	8.8439	5.1383	2587.379	0.5968	0.7891
3.743	3	124.81	0.04	94.14	0.0104	4333	9	20.37	405.1		3.743	3	124.8	10.184	0.0104	1504.061	1.7195	8.8189	5.1287	2586.233	0.5977	0.7959
3.753	3	125.81	0.09	94.29	0.0109	4337	9	20.36	403.8		3.753	3	125.8	10.189	0.0109	1501.474	1.7174	8.8064	5.1278	2578.604	0.599	0.7986
3.763	3	126.81	0.15	94.51	0.0092	4339	9	20.37	401.9		3.763	3	126.8	10.195	0.0092	1497.503	1.7157	8.7914	5.124	2569.32	0.5999	0.8026
3.773	3	127.81	0.19	94.62	0.0067	4347	9	20.37	404		3.773	3	127.8	10.199	0.0067	1495.674	1.7125	8.7815	5.1278	2561.379	0.6018	0.7982
3.783	3	128.81	0.29	94.66	0.0069	4356	9	20.37	398.8		3.783	3	128.8	10.209	0.0069	1496.263	1.708	8.7567	5.1269	2555.621	0.6044	0.8095
3.793	3	129.81	0.29	94.74	0.0064	4392	8	20.37	397		3.793	3	129.8	10.209	0.0064	1494.51	1.6967	7.7837	4.5876	2535.731	0.611	0.8133
3.803	3	130.81	0.34	94.83	0.0061	4439	9	20.37	377		3.803	3	130.8	10.214	0.0061	1493.275	1.6813	8.7443	5.201	2510.629	0.6199	0.86
3.813	3	131.81	0.38	94.87	0.0062	4375	9	20.37	374.7		3.813	3	131.8	10.218	0.0062	1492.986	1.7005	8.7345	5.1363	2538.856	0.6087	0.8656
3.823	3	132.81	0.49	94.92	0.0055	4347	9	20.37	369.5		3.823	3	132.8	10.229	0.0055	1493.503	1.7075	8.7074	5.0995	2550.16	0.6047	0.8789
3.833	3	133.81	0.63	94.95	0.0045	4445	9	20.37	363.4		3.833	3	133.8	10.243	0.0045	1494.892	1.6747	8.6731	5.1789	2503.48	0.6237	0.8947
3.843	3	134.81	0.68	94.94	0.0053	4401	9	20.37	358.4		3.843	3	134.8	10.248	0.0053	1495.84	1.6874	8.6609	5.1326	2524.144	0.6163	0.9082
3.853	3	135.81	0.78	94.98	0.005	4373	9	20.37	356.3		3.853	3	135.8	10.258	0.005	1496.426	1.6945	8.6366	5.0968	2535.718	0.6122	0.9139
3.863	3	136.81	0.86	95.01	0.0043	4330	9	20.38	357.3		3.863	3	136.8	10.266	0.0043	1496.938	1.7067	8.6172	5.049	2554.844	0.6052	0.9111
3.873	3	137.81	0.91	94.92	0.005	4333	9	20.37	356.1		3.873	3	137.8	10.271	0.005	1499.635	1.7049	8.6051	5.0472	2556.78	0.6062	0.9145
3.883	3	138.81	1.08	94.89	0.0048	4287	9	20.38	352.9		3.883	3	138.8	10.288	0.0048	1502.775	1.7167	8.5642	4.9887	2579.854	0.5993	0.9234
3.893	3	139.81	1.52	95.01	0.004	4286	9	20.37	350.4		3.893	3	139.8	10.332	0.004	1506.562	1.7097	8.4595	4.9479	2575.819	0.6034	0.9306
3.903	3	140.81	1.72	94.83	0.0038	4280	9	20.37	348.3		3.903	3	140.8	10.352	0.0038	1513.45	1.7083	8.4126	4.9244	2585.487	0.6042	0.9365
3.913	3	141.81	2.7	95.23	0.003	4281	9	20.38	345.6		3.913	3	141.8	10.45	0.003	1518.895	1.692	8.1876	4.839	2569.976	0.6137	0.9444
3.923	3	142.81	3.06	95.51	0.003	4142	9	20.37	338.6		3.923	3	142.8	10.486	0.003	1517.95	1.7308	8.107	4.6839	2627.296	0.5912	0.9656
3.933	3	143.81	3.66	999	0	4164	9	20.37	326.8		3.933	3	143.8	10.546	0	108.4343	1.7138	7.9753	4.6535	185.8371	0.601	1.0032
3.943	3	144.81	4.09	95.32	0.0006	4132	8	20.38	307.7		3.943	3	144.8	10.589	0.0006	1537.088	1.7172	7.0068	4.0803	2639.542	0.5991	1.0705
3.953	3	145.81	4.87	95.76	0.0005	4128	8	20.38	278.4		3.953	3	145.8	10.667	0.0005	1538.583	1.706	6.8609	4.0217	2624.781	0.6056	1.1922
3.963	3	146.81	4.2	96.23	0.0006	4165	9	20.38	238.3		3.963	3	146.8	10.6	0.0006	1518.625	1.7048	7.8592	4.6101	2588.904	0.6063	1.4097
3.973	3	147.81	3.34	999	0	4247	8	20.38	190		3.973	3	147.8	10.514	0	108.1053	1.6924	7.1512	4.2255	182.9593	0.6134	1.7993
3.983	3	148.81	3.78	999	0	4357	7	20.38	149.9		3.983	3	148.8	10.558	0	108.5577	1.6512	6.1828	3.7443	179.2547	0.6373	2.3222
3.993	3	149.81	5.67	999	0	7103	8	20.37	128		3.993	3	149.8	10.747	0	110.501	1.0226	6.7157	6.5673	112.999	1.002	2.7542
4.003	4	0.18	6.25	999	0	9397	7	20.38	126.4		4.003	4	0.2	10.805	0	111.0974	0.7046	5.7865	8.2127	78.2771	1.1864	2.7922
4.013	4	1.18	6.41	999	0	4169	7	20.38	147.8		4.013	4	1.2	10.821	0	111.2619	1.6687	5.7621	3.4531	185.6617	0.6272	2.3593
4.023	4	2.18	6.8	999	0	4129	8	20.38	189.1		4.023	4	2.2	10.86	0	111.6629	1.6753	6.5179	3.8905	187.073	0.6234	1.8081
4.033	4	3.18	6.7	999	0	4114	8	20.38	238.8		4.033	4	3.2	10.85	0	111.5601	1.6817	6.5351	3.8861	187.6068	0.6197	1.4065
4.043	4	4.18	6.25	999	0	4268	8	20.38	283.5		4.043	4	4.2	10.805	0	111.0974	1.6404	6.6131	4.0315	182.2426	0.6436	1.1689
4.053	4	5.18	2.39	93.96	0.0002	4289	8	20.38	317.4		4.053	4	5.2	10.419	0.0002	1542.87	1.6945	7.3403	4.3318	2614.409	0.6122	1.0351
4.063	4	6.18	1.13	94.07	0.0052	4325	9	20.38	338.4		4.063	4	6.2	10.293	0.0052	1521.733	1.7038	8.5522	5.0194	2592.752	0.6068	0.9662
4.073	4	7.18	0.05	93.72	0.0241	4276	9	20.37	354.9		4.073	4	7.2	10.185	0.0241	1513.598	1.7376	8.8164	5.0737	2630.098	0.5872	0.9178
4.083	4	8.18	-0.01	93.92	0.0216	4265	8	20.37	363.7		4.083	4	8.2	10.179	0.0216	1508.224	1.7422	7.8501	4.5058	2627.692	0.5845	0.8938
4.093	4	9.18	-0.06	93.83	0.0146	4287	9	20.37	369.1		4.093	4	9.2	10.174	0.0146	1509.495	1.736	8.8439	5.0945	2620.427	0.5882	0.8797
4.103	4	10.18	-0.08	93.78	0.0126	4286	8	20.37	371.9		4.103	4	10.2	10.172	0.0126	1510.319	1.7366	7.8657	4.5293	2622.861	0.5878	0.8726
4.113	4	11.18	-0.12	93.73	0.0132	4230	9	20.37	372.1		4.113	4	11.2	10.168	0.0132	1510.847	1.7556	8.859	5.0462	2652.425	0.5768	0.8722
4.123	4	12.18	-0.11	93.62	0.0144	4213	8	20.37	371		4.123	4	12.2	10.169	0.0144	1513.469	1.761	7.8724	4.4704	2665.257	0.5737	0.8749
4.133	4	13.18	-0.12	93.41	0.0169	4226	9	20.37	371.2		4.133	4	13.2	10.168	0.0169	1518.065	1.7569	8.859	5.0424	2667.097	0.576	0.8744
4.143	4	14.18	-0.12	93.46	0.0236	4275	8	20.37	369.5		4.143	4	14.2	10.168	0.0236	1516.933	1.7409	7.8747	4.5234	2640.792	0.5853	0.8788
4.153	4	15.18	-0.12	93.67	0.0163	4239	8	20.38	368.9		4.153	4	15.2	10.168	0.0163	1512.195	1.7526	7.8747	4.4931	2650.318	0.5785	0.8803
4.163	4	16.18	-0.12	93.7	0.0111	4202	8	20.38	367.7		4.163	4	16.2	10.168	0.0111	1511.521	1.7648	7.8747	4.462	2667.598	0.5714	0.8835
4.173	4	17.18	-0.01	93.46	0.0097	4249	9	20.37	367.9		4.173	4	17.2	10.179	0.0097	1518.574	1.7475	8.8314	5.0538	2653.649	0.5815	0.8829
4.183	4	18.18	0.04	93.24	0.0139	4258	8	20.38	369.8		4.183	4	18.2	10.184	0.0139	1524.323	1.7437	7.839	4.4957	2657.911	0.5837	0.8781
4.193	4	19.18	0.13	93.28	0.0153	4182	9	20.38	369.8		4.193	4	19.2	10.193	0.0153	1524.757	1.7672	8.7964	4.9777	2694.489	0.5701	0.8779
4.203	4	20.18	0.19	93.21	0.0145	4094	8	20.38	371.2		4.203	4	20.2	10.199	0.0145	1527.254	1.7958	7.8058	4.3466	2742.688	0.5535	0.8744
4.213	4	21.18	0.29	93.04	0.0139	4228	9	20.37	371.5		4.213	4	21.2	10.209	0.0139	1532.653	1.7492	8.7567	5.0061	2680.906	0.5805	0.8738
4.223	4	22.18	0.28	93.26	0.0219	4219	8	20.37	371.4		4.223	4	22.2	10.208	0.0219	1527.458	1.7523	7.7859	4.4432	2676.597	0.5787	0.8738
4.233	4	23.18	0.24	93.33	0.0184	4173	8	20.37	372.6		4.233	4	23.2	10.204	0.0184	1525.261	1.7683	7.7947	4.4082	2697.05	0.5695	0.8708
4.243	4	24.18	0.33	93.39	0.0181	4181	8	20.38	375.1		4.243	4	24.2	10.213	0.0181	1525.239	1.764	7.7749	4.4075	2690.569	0.5719	0.8646
4.253	4	25.18	0.29	93.43	0.0166	4103	8	20.37	378.6		4.253	4	25.2	10.209	0.0166	1523.731	1.791	7.7837	4.346	2728.999	0.5563	0.856
4.263	4	26.18	0.34	93.37	0.0149	4126	8	20.37	379		4.263	4	26.2	10.214	0.0149	1525.844	1.7823	7.7727	4.361	2719.528	0.5613	0.8551
4.273	4	27.18	0.34	93.45	0.016	4103	8	20.37	376.9		4.273	4	27.2	10.214	0.016	1524.023	1.7901	7.7727	4.342	2728.185	0.5568	0.8603
4.283	4	28.18	0.34	93.43	0.0143	4155	8	20.38	375.9		4.283	4	28.2	10.214	0.0143	1524.478	1.7725	7.7727	4.3851	2702.2	0.567	0.8626
4.293	4	29.18	0.39	93.39	0.0133	4104	9	20.38	374.5		4.293	4	29.2	10.219	0.0133	1526.135	1.7889	8.732	4.8812	2730.11	0.5575	0.8662
4.303	4	30.18	0.34	93.47	0.0128	4124	8	20.38	375.3		4.303	4	30.2	10.214	0.0128	1523.568	1.783	7.7727	4.3594	2716.502	0.5609	0.8641
4.313	4	31.18	0.34	93.45	0.0132	4122	8	20.36	375.6		4.313	4	31.2	10.214	0.0132	1524.023	1.7837	7.7727	4.3577	2718.345	0.5605	0.8635
4.323	4	32.18	0.34	93.46	0.0148	4168	8	20.37	379.7		4.323	4	32.2	10.214	0.0148	1523.795	1.7682	7.7727	4.3959	2694.362	0.5695	0.8534
4.333	4	33.18	0.35	93.44	0.0151	4169	8	20.37	385.5		4.333	4	33.2	10.215	0.0151	1524.399	1.7677	7.7705	4.3959	2694.657	0.5698	0.8396
4.343	4	34.18	0.29	93.49	0.0141	4170	8	20.38	387.4		4.343	4	34.2	10.209	0.0141	1522.368	1.7684	7.7837	4.4016	2692.14	0.5694	0.8352
4.353	4	35.18	0.28	93.44	0.0122	4119	8	20.37	388.2		4.353	4	35.2	10.208	0.0122	1523.355	1.7857	7.7859	4.3601	2720.301	0.5593	0.8333
4.363	4	36.18	0.24	93.54	0.0122	4169	8	20.37	385.5		4.363	4	36.2	10.204	0.0122	1520.489	1.7696	7.7947	4.4048	2690.642	0.5687	0.8394
4.373	4	37.18	0.25	93.6	0.011	4160	8	20.38	380		4.373	4	37.2	10.205	0.011	1519.279	1.7724	7.7925	4.3965	2692.814	0.567	0.8525
4.383	4	38.18	0.3	93.46	0.0107	4134	8	20.38	373.7		4.383	4	38.2	10.21	0.0107	1523.199	1.7803	7.7815	4.3709	2711.757	0.5625	0.8682
4.393	4	39.18	0.2	93.41	0.0088	4119	8	20.38	368.2		4.393	4	39.2	10.2	0.0088	1522.843	1.7871	7.8036	4.3665	2721.519	0.5585	0.8822
4.403	4	40.18	0.26	93.34	0.0081	4073	8	20.38	365.9		4.403	4	40.2	10.206	0.0081	1525.333	1.8018	7.7903	4.3236	2748.352	0.55	0.888
4.413	4	41.18	0.31	93.4	0.0095	4117	8	20.37	366.2		4.413	4	41.2	10.211	0.0095	1524.712	1.7859	7.7793	4.356	2722.96	0.5592	0.8873
4.423	4	42.18	0.25	93.37	0.0082	4085	8	20.37	365.8		4.423	4	42.2	10.205	0.0082	1524.5	1.7979	7.7925	4.3343	2740.833	0.5523	0.8885
4.433	4	43.18	0.3	93.35	0.0071	4150	8	20.37	366		4.433	4	43.2	10.21	0.0071	1525.702	1.7749	7.7815	4.3842	2707.992	0.5656	0.8878
4.443	4	44.18	0.32	93.54	0.0069	4107	8	20.37	363.9		4.443	4	44.2	10.212	0.0069	1521.681	1.7891	7.7771	4.3469	2722.453	0.5574	0.8933
4.453	4	45.18	0.32	93.4	0.0058	4100	8	20.37	359.9		4.453	4	45.2	10.212	0.0058	1524.862	1.7915	7.7771	4.3411	2731.782	0.556	0.9039
4.463	4	46.18	0.32	93.33	0.0055	4070	8	20.38	356.6		4.463	4	46.2	10.212	0.0055	1526.457	1.8018	7.7771	4.3164	2750.34	0.55	0.913
4.473	4	47.18	0.37	93.29	0.0052	4088	7	20.38	354.6		4.473	4	47.2	10.217	0.0052	1528.118	1.7947	6.7954	3.7863	2742.542	0.5541	0.9185
4.483	4	48.18	0.39	93.26	0.0053	4095	8	20.38	353.1		4.483	4	48.2	10.219	0.0053	1529.104	1.792	7.7618	4.3314	2740.114	0.5557	0.9228
4.493	4	49.18	0.42	93.43	0.0059	4140	8	20.37	351.7		4.493	4	49.2	10.222	0.0059	1525.672	1.7762	7.7552	4.3662	2709.886	0.5649	0.9267
4.503	4	50.18	0.42	93.65	0.0068	4171	8	20.39	350.3		4.503	4	50.2	10.222	0.0068	1520.678	1.7658	7.7552	4.3919	2685.225	0.5709	0.9307
4.513	4	51.18	0.41	93.65	0.0064	4142	7	20.38	350.3		4.513	4	51.2	10.221	0.0064	1520.53	1.7757	6.7877	3.8226	2699.994	0.5651	0.9308
4.523	4	52.18	0.41	93.5	0.0055	4130	8	20.38	350		4.523	4	52.2	10.221	0.0055	1523.93	1.7797	7.7574	4.3587	2712.197	0.5628	0.9315
4.533	4	53.18	0.34	93.61	0.0059	4196	8	20.38	350.4		4.533	4	53.2	10.214	0.0059	1520.393	1.7589	7.7727	4.4191	2674.19	0.5749	0.9306
4.543	4	54.18	0.45	93.74	0.007	4248	8	20.38	352.3		4.543	4	54.2	10.225	0.007	1519.091	1.7399	7.7486	4.4534	2643.105	0.5859	0.9251
4.553	4	55.18	0.49	93.91	0.0065	4286	8	20.38	355.8		4.553	4	55.2	10.229	0.0065	1515.856	1.727	7.7399	4.4818	2617.808	0.5934	0.9154
4.563	4	56.18	0.6	94.09	0.0073	4238	7	20.38	359.5		4.563	4	56.2	10.24	0.0073	1513.45	1.7406	6.7515	3.8787	2634.36	0.5855	0.9051
4.573	4	57.18	0.63	94.08	0.007	4191	8	20.38	362.4		4.573	4	57.2	10.243	0.007	1514.117	1.7556	7.7094	4.3915	2658.112	0.5768	0.8973
4.583	4	58.18	0.74	94.12	0.0064	4244	7	20.38	364.4		4.583	4	58.2	10.254	0.0064	1514.847	1.7363	6.7249	3.8731	2630.235	0.588	0.892
4.593	4	59.18	0.88	94.26	0.006	4211	8	20.38	364.1		4.593	4	59.2	10.268	0.006	1513.784	1.7447	7.6554	4.3878	2641.102	0.5831	0.8929
4.603	4	60.18	0.91	94.15	0.006	4267	8	20.38	362.9		4.603	4	60.2	10.271	0.006	1516.686	1.726	7.649	4.4316	2617.79	0.594	0.8959
4.613	4	61.18	0.91	94.09	0.0059	4210	8	20.38	361.6		4.613	4	61.2	10.271	0.0059	1518.031	1.7445	7.649	4.3846	2648.236	0.5832	0.8994
4.623	4	62.18	0.85	94.07	0.0059	4192	8	20.39	361.3		4.623	4	62.2	10.265	0.0059	1517.593	1.7515	7.6619	4.3746	2658.004	0.5792	0.9002
4.633	4	63.18	0.83	93.81	0.0068	4150	8	20.38	360.6		4.633	4	63.2	10.263	0.0068	1523.152	1.7657	7.6662	4.3416	2689.505	0.5709	0.902
4.643	4	64.18	0.83	93.65	0.0058	4157	8	20.38	360.9		4.643	4	64.2	10.263	0.0058	1526.778	1.7634	7.6662	4.3474	2692.338	0.5723	0.9013
4.653	4	65.18	0.79	93.63	0.005	4173	8	20.39	360.4		4.653	4	65.2	10.259	0.005	1526.637	1.7588	7.6748	4.3637	2685.01	0.575	0.9028
4.663	4	66.18	0.79	93.63	0.0045	4160	7	20.38	356		4.663	4	66.2	10.259	0.0045	1526.637	1.7631	6.7155	3.8089	2691.612	0.5724	0.9146
4.673	4	67.18	0.77	93.7	0.0068	4178	7	20.38	354.2		4.673	4	67.2	10.257	0.0068	1524.751	1.7575	6.7192	3.8233	2679.687	0.5757	0.9198
4.683	4	68.18	0.68	93.73	0.007	4154	7	20.38	352		4.683	4	68.2	10.248	0.007	1522.734	1.767	6.7363	3.8123	2690.664	0.5702	0.926
4.693	4	69.18	0.63	93.69	0.0067	4207	7	20.38	352.8		4.693	4	69.2	10.243	0.0067	1522.896	1.7503	6.7458	3.8541	2665.487	0.5799	0.9237
4.703	4	70.18	0.53	93.74	0.008	4201	7	20.38	355.9		4.703	4	70.2	10.233	0.008	1520.279	1.754	6.7648	3.8569	2666.515	0.5777	0.915
4.713	4	71.18	0.48	93.67	0.0071	4224	8	20.38	355.5		4.713	4	71.2	10.228	0.0071	1521.118	1.7473	7.7421	4.431	2657.781	0.5816	0.916
4.723	4	72.18	0.4	93.65	0.0085	4209	8	20.38	357.7		4.723	4	72.2	10.22	0.0085	1520.381	1.7536	7.7596	4.4251	2666.071	0.578	0.9101
4.733	4	73.18	0.32	93.64	0.008	4156	8	20.38	359.3		4.733	4	73.2	10.212	0.008	1519.417	1.7726	7.7771	4.3875	2693.248	0.567	0.9056
4.743	4	74.18	0.27	93.64	0.008	4173	8	20.39	360.5		4.743	4	74.2	10.207	0.008	1518.673	1.7677	7.7881	4.4057	2684.61	0.5698	0.9025
4.753	4	75.18	0.28	93.62	0.0083	4266	7	20.38	362		4.753	4	75.2	10.208	0.0083	1519.274	1.737	6.8127	3.9222	2638.932	0.5876	0.8985
4.763	4	76.18	0.27	93.42	0.0083	4159	8	20.39	364.8		4.763	4	76.2	10.207	0.0083	1523.66	1.7724	7.7881	4.3941	2700.56	0.567	0.8909
4.773	4	77.18	0.13	93.37	0.0098	4155	8	20.38	365.4		4.773	4	77.2	10.193	0.0098	1522.707	1.7762	7.819	4.4021	2704.623	0.5649	0.8894
4.783	4	78.18	0.13	93.34	0.0096	4190	8	20.38	364		4.783	4	78.2	10.193	0.0096	1523.39	1.7645	7.819	4.4313	2688.016	0.5716	0.893
4.793	4	79.18	0.02	93.29	0.0098	4107	7	20.39	365.1		4.793	4	79.2	10.182	0.0098	1522.884	1.7944	6.863	3.8247	2732.632	0.5543	0.8902
4.803	4	80.18	-0.02	93.24	0.0094	4104	7	20.39	365.1		4.803	4	80.2	10.178	0.0094	1523.425	1.7961	6.8708	3.8254	2736.239	0.5533	0.8902
4.813	4	81.18	-0.08	93.1	0.0098	4088	7	20.38	364.2		4.813	4	81.2	10.172	0.0098	1525.724	1.8027	6.8825	3.818	2750.358	0.5495	0.8926
4.823	4	82.18	-0.13	92.97	0.0096	4127	7	20.38	364		4.823	4	82.2	10.167	0.0096	1527.953	1.7902	6.8923	3.85	2735.356	0.5567	0.893
4.833	4	83.18	-0.12	92.94	0.0103	4090	7	20.38	363.8		4.833	4	83.2	10.168	0.0103	1528.793	1.8027	6.8903	3.8223	2755.923	0.5495	0.8937
4.843	4	84.18	-0.12	92.83	0.0085	4083	7	20.38	364.4		4.843	4	84.2	10.168	0.0085	1531.325	1.8051	6.8903	3.8172	2764.177	0.5481	0.8921
4.853	4	85.18	-0.17	92.68	0.0107	4096	7	20.38	364.7		4.853	4	85.2	10.163	0.0107	1534.038	1.8015	6.9001	3.8302	2763.576	0.5502	0.8912
4.863	4	86.18	-0.12	92.74	0.0104	4098	7	20.38	365.9		4.863	4	86.2	10.168	0.0104	1533.404	1.7999	6.8903	3.8281	2760.023	0.5511	0.888
4.873	4	87.18	-0.08	92.94	0.0103	4120	7	20.38	366.3		4.873	4	87.2	10.172	0.0103	1529.394	1.7917	6.8825	3.8413	2740.231	0.5559	0.8871
4.883	4	88.18	-0.12	92.92	0.0087	4071	8	20.38	365.6		4.883	4	88.2	10.168	0.0087	1529.253	1.8092	7.8747	4.3525	2766.77	0.5457	0.8889
4.893	4	89.18	-0.09	93.05	0.0078	4124	7	20.38	365		4.893	4	89.2	10.171	0.0078	1526.719	1.7905	6.8845	3.8449	2733.628	0.5565	0.8905
4.903	4	90.18	0	93.22	0.0073	4193	7	20.38	364.2		4.903	4	90.2	10.18	0.0073	1524.18	1.7658	6.8669	3.8889	2691.324	0.5709	0.8926
4.913	4	91.18	-0.03	93.12	0.0078	4152	7	20.38	364.5		4.913	4	91.2	10.177	0.0078	1526.016	1.78	6.8728	3.8611	2716.303	0.5626	0.8916
4.923	4	92.18	0.06	93.1	0.0075	4118	7	20.38	363.2		4.923	4	92.2	10.186	0.0075	1527.824	1.7899	6.8552	3.8299	2734.693	0.5569	0.8951
4.933	4	93.18	0.11	93.13	0.0066	4068	7	20.38	361.3		4.933	4	93.2	10.191	0.0066	1527.886	1.8062	6.8455	3.7901	2759.642	0.5475	0.9003
4.943	4	94.18	0.11	93.15	0.0064	4126	7	20.38	364.2		4.943	4	94.2	10.191	0.0064	1527.428	1.7863	6.8455	3.8322	2728.495	0.559	0.8926
4.953	4	95.18	0.28	93.34	0.0058	4103	7	20.38	361.7		4.953	4	95.2	10.208	0.0058	1525.632	1.7912	6.8127	3.8035	2732.67	0.5562	0.8992
4.963	4	96.18	0.23	93.24	0.0062	4069	7	20.38	359		4.963	4	96.2	10.203	0.0062	1527.167	1.8037	6.8223	3.7824	2754.571	0.5489	0.9064
4.973	4	97.18	0.17	93.14	0.0059	4088	7	20.38	357.8		4.973	4	97.2	10.197	0.0059	1528.556	1.7982	6.8339	3.8003	2748.709	0.5521	0.9099
4.983	4	98.18	0.23	93.21	0.0057	4055	7	20.38	356.8		4.983	4	98.2	10.203	0.0057	1527.853	1.8086	6.8223	3.7723	2763.202	0.5461	0.9124
4.993	4	99.18	0.23	93.29	0.0053	4098	7	20.38	355.8		4.993	4	99.2	10.203	0.0053	1526.025	1.7938	6.8223	3.8034	2737.319	0.5547	0.9153
5.003	4	100.18	0.27	93.41	0.0052	4160	7	20.38	353.9		5.003	4	100.2	10.207	0.0052	1523.888	1.7721	6.8146	3.8455	2700.452	0.5672	0.9206
5.013	4	101.18	0.18	93.48	0.0052	4129	7	20.38	352.2		5.013	4	101.2	10.198	0.0052	1520.954	1.7841	6.832	3.8294	2713.521	0.5603	0.9255
5.023	4	102.18	0.21	93.47	0.0049	4055	7	20.38	351.3		5.023	4	102.2	10.201	0.0049	1521.629	1.8089	6.8262	3.7737	2752.486	0.5459	0.928
5.033	4	103.18	0.21	93.33	0.0045	4065	7	20.37	349.5		5.033	4	103.2	10.201	0.0045	1524.813	1.8054	6.8262	3.7809	2752.971	0.5479	0.9331
5.043	4	104.18	0.15	93.22	0.0038	4109	7	20.38	348.6		5.043	4	104.2	10.195	0.0038	1526.426	1.7914	6.8378	3.817	2734.455	0.556	0.9357
5.053	4	105.18	0.16	93.02	0.004	4054	7	20.38	348.7		5.053	4	105.2	10.196	0.004	1531.161	1.8101	6.8359	3.7764	2771.617	0.5452	0.9355
5.063	4	106.18	0.14	92.95	0.0041	4037	7	20.38	346.5		5.063	4	106.2	10.194	0.0041	1532.472	1.8164	6.8397	3.7655	2783.594	0.5415	0.9417
5.073	4	107.18	0.05	92.93	0.0044	4011	7	20.38	345.1		5.073	4	107.2	10.185	0.0044	1531.579	1.8271	6.8572	3.753	2798.388	0.5353	0.9459
5.083	4	108.18	0.11	92.9	0.0043	4010	7	20.37	343.7		5.083	4	108.2	10.191	0.0043	1533.173	1.8264	6.8455	3.7481	2800.191	0.5357	0.9501
5.093	4	109.18	-0.01	92.91	0.0035	4029	7	20.37	343.4		5.093	4	109.2	10.179	0.0035	1531.137	1.8219	6.8689	3.7702	2789.552	0.5384	0.9508
5.103	4	110.18	0.05	92.73	0.0035	3904	7	20.37	342.8		5.103	4	110.2	10.185	0.0035	1536.199	1.8655	6.8572	3.6759	2865.707	0.5131	0.9526
5.113	4	111.18	0.05	92.47	0.0033	3921	7	20.37	344		5.113	4	111.2	10.185	0.0033	1542.247	1.8593	6.8572	3.6881	2867.458	0.5167	0.9493
5.123	4	112.18	0.22	92.19	0.003	3810	7	20.33	344.7		5.123	4	112.2	10.202	0.003	1551.399	1.8971	6.8243	3.5972	2943.16	0.4947	0.9469
5.133	4	113.18	0.17	92.43	0.0023	3947	7	20.34	344.5		5.133	4	113.2	10.197	0.0023	1545	1.8477	6.8339	3.6986	2854.714	0.5234	0.9478
5.143	4	114.18	0.17	92.71	0.0036	4069	7	20.33	345.6		5.143	4	114.2	10.197	0.0036	1538.473	1.8048	6.8339	3.7866	2776.598	0.5483	0.9443
5.153	4	115.18	0.22	93.19	0.0036	4149	7	20.33	347		5.153	4	115.2	10.202	0.0036	1528.161	1.7766	6.8243	3.8411	2714.996	0.5646	0.9404
5.163	4	116.18	0.22	93.43	0.0032	4142	7	20.34	346.3		5.163	4	116.2	10.202	0.0032	1522.687	1.779	6.8243	3.836	2708.86	0.5632	0.9423
5.173	4	117.18	0.22	93.32	0.0031	4130	7	20.33	342.7		5.173	4	117.2	10.202	0.0031	1525.191	1.7831	6.8243	3.8273	2719.495	0.5609	0.953
5.183	4	118.18	0.22	93.25	0.0027	4000	7	20.33	340.8		5.183	4	118.2	10.202	0.0027	1526.788	1.828	6.8243	3.7333	2790.899	0.5348	0.9586
5.193	4	119.18	0.22	93.03	0.0023	4060	8	20.33	339.8		5.193	4	119.2	10.202	0.0023	1531.832	1.807	7.7992	4.3161	2768.019	0.547	0.9617
5.203	4	120.18	0.22	93.21	0.0027	4080	7	20.33	340		5.203	4	120.2	10.202	0.0027	1527.703	1.8001	6.8243	3.791	2750.023	0.551	0.961
5.213	4	121.18	0.22	93.27	0.0025	4084	7	20.34	339.6		5.213	4	121.2	10.202	0.0025	1526.332	1.7987	6.8243	3.7939	2745.457	0.5518	0.9624
5.223	4	122.18	0.22	93.28	0.0025	4047	7	20.34	338.8		5.223	4	122.2	10.202	0.0025	1526.103	1.8115	6.8243	3.7672	2764.544	0.5444	0.9648
5.233	4	123.18	0.33	93.25	0.0023	4068	7	20.33	334.8		5.233	4	123.2	10.213	0.0023	1528.435	1.8023	6.8031	3.7747	2754.686	0.5497	0.9774
5.243	4	124.18	0.29	93.14	0.0023	4007	7	20.33	332.7		5.243	4	124.2	10.209	0.0023	1530.355	1.8242	6.8108	3.7335	2791.73	0.537	0.9838
5.253	4	125.18	0.4	93.09	0.002	3988	7	20.34	330.6		5.253	4	125.2	10.22	0.002	1533.153	1.829	6.7896	3.7123	2804.087	0.5342	0.9908
5.263	4	126.18	0.37	92.94	0.002	3949	7	20.34	329.4		5.263	4	126.2	10.217	0.002	1536.16	1.8434	6.7954	3.6864	2831.724	0.5259	0.9944
5.273	4	127.18	0.42	92.72	0.0016	3878	7	20.34	328		5.273	4	127.2	10.222	0.0016	1542.012	1.8682	6.7858	3.6323	2880.765	0.5115	0.999
5.283	4	128.18	0.48	92.57	0.0017	3927	6	20.34	326.8		5.283	4	128.2	10.228	0.0017	1546.417	1.8493	5.8066	3.1399	2859.777	0.5225	1.0031
5.293	4	129.18	0.41	92.46	0.0021	3908	6	20.34	325		5.293	4	129.2	10.221	0.0021	1547.933	1.8574	5.818	3.1323	2875.177	0.5177	1.0091
5.303	4	130.18	0.46	92.33	0.0015	3879	6	20.34	323		5.303	4	130.2	10.226	0.0015	1551.745	1.8671	5.8098	3.1117	2897.245	0.5121	1.0157
5.313	4	131.18	0.45	92.36	0.0013	3830	6	20.34	316.9		5.313	4	131.2	10.225	0.0013	1550.887	1.8854	5.8115	3.0824	2923.985	0.5015	1.037
5.323	4	132.18	0.44	92.31	0.0012	3782	6	20.33	303.1		5.323	4	132.2	10.224	0.0012	1551.913	1.9036	5.8131	3.0538	2954.168	0.491	1.088
5.333	4	133.18	0.55	92.31	0.001	3846	6	20.33	303		5.333	4	133.2	10.235	0.001	1553.582	1.8776	5.7951	3.0865	2916.984	0.506	1.0881
5.343	4	134.18	0.64	92.17	0.001	3812	7	20.33	303.8		5.343	4	134.2	10.244	0.001	1558.26	1.8886	6.7439	3.5709	2942.89	0.4997	1.0853
5.353	4	135.18	0.64	92.15	0.001	3869	6	20.34	303.2		5.353	4	135.2	10.244	0.001	1558.734	1.8675	5.7804	3.0953	2910.887	0.5119	1.0873
5.363	4	136.18	0.79	92.57	0.0009	3976	6	20.34	303.1		5.363	4	136.2	10.259	0.0009	1551.104	1.8262	5.7561	3.1519	2832.698	0.5358	1.0877
5.373	4	137.18	0.89	93.04	0.0012	3978	7	20.33	305		5.373	4	137.2	10.269	0.0012	1541.66	1.8238	6.6966	3.6719	2811.623	0.5373	1.0804
5.383	4	138.18	0.91	93.21	0.001	3971	6	20.34	306.3		5.383	4	138.2	10.271	0.001	1538.035	1.8259	5.7367	3.1419	2808.268	0.536	1.0755
5.393	4	139.18	0.96	93.07	0.001	4012	7	20.34	306.2		5.393	4	139.2	10.276	0.001	1542.017	1.8106	6.6835	3.6913	2791.972	0.5449	1.0758
5.403	4	140.18	1.22	93.04	0.0007	4030	7	20.33	308.4		5.403	4	140.2	10.302	0.0007	1546.615	1.7998	6.635	3.6865	2783.573	0.5512	1.0675
5.413	4	141.18	1.21	93.31	0.001	4093	15	20.34	309.3		5.413	4	141.2	10.301	0.001	1540.221	1.7784	14.2218	7.997	2739.109	0.5636	1.0645
5.423	4	142.18	1.67	93.36	0.0017	4055	7	20.33	308.9		5.423	4	142.2	10.347	0.0017	1545.943	1.7834	6.5522	3.674	2757.009	0.5607	1.066
5.433	4	143.18	3.75	94.25	0.0008	4168	6	20.34	307.9		5.433	4	143.2	10.555	0.0008	1556.326	1.7111	5.3038	3.0997	2662.977	0.6026	1.0696
5.443	4	144.18	3.68	95.03	0.0001	4004	7	20.34	302.2		5.443	4	144.2	10.548	0.0001	1537.609	1.7666	6.1996	3.5093	2716.386	0.5704	1.0912
5.453	4	145.18	3.37	999	0	3910	6	20.34	290.1		5.453	4	145.2	10.517	0	108.1362	1.8044	5.359	2.9699	195.1261	0.5485	1.1405
5.463	4	146.18	3.23	999	0	3923	6	20.34	270		5.463	4	146.2	10.503	0	107.9922	1.8023	5.3796	2.9849	194.6319	0.5497	1.2321
5.473	4	147.18	3.18	95.2	0.0001	3995	7	20.34	239.7		5.473	4	147.2	10.498	0.0001	1526.538	1.7781	6.2848	3.5345	2714.38	0.5637	1.401
5.483	4	148.18	3.12	98.81	0.0001	4034	6	20.34	199.6		5.483	4	148.2	10.492	0.0001	1449.572	1.7658	5.3958	3.0557	2559.704	0.5709	1.7061
5.493	4	149.18	3.32	95.6	0.0004	4014	6	20.35	153.4		5.493	4	149.2	10.512	0.0004	1519.734	1.7693	5.3664	3.0331	2688.815	0.5689	2.2664
5.503	4	150.18	5.27	999	0	3945	6	20.35	116.8		5.503	4	150.2	10.707	0	110.0898	1.7604	5.0908	2.8919	193.8003	0.574	3.0387
5.513	4	151.18	6.39	999	0	7047	5	20.34	99.7		5.513	4	151.2	10.819	0	111.2414	1.0249	4.1179	4.0179	114.0114	1.0006	3.6029
5.523	5	0.61	6.67	999	0	8003	5	20.34	101.9		5.523	5	0.6	10.847	0	111.5293	0.8782	4.0877	4.6544	97.9496	1.0857	3.5214
5.533	5	1.61	6.73	999	0	4038	5	20.35	123.4		5.533	5	1.6	10.853	0	111.5909	1.7058	4.0812	2.3926	190.3504	0.6057	2.8652
5.543	5	2.61	6.38	999	0	3819	5	20.34	158		5.543	5	2.6	10.818	0	111.2311	1.7859	4.119	2.3064	198.6467	0.5592	2.1945
5.553	5	3.61	6.02	94.29	0.0004	3639	6	20.35	196.3		5.553	5	3.6	10.782	0.0004	1588.859	1.8577	4.9902	2.6862	2951.599	0.5176	1.7367
5.563	5	4.61	5.41	999	0	3821	4	20.36	229.6		5.563	5	4.6	10.721	0.00085	1586.724	1.8013	3.3812	1.8771	198.5682	0.5503	1.4671
5.573	5	5.61	1.23	91.45	0.0013	3981	6	20.35	255.2		5.573	5	5.6	10.303	0.0013	1584.589	1.8167	5.6855	3.1296	2878.707	0.5414	1.3095
5.583	5	6.61	0.81	92.05	0.0043	4002	5	20.34	272.1		5.583	5	6.6	10.261	0.0043	1563.7	1.8167	4.7941	2.6388	2840.84	0.5413	1.2218
5.593	5	7.61	0.01	92.13	0.0188	3959	6	20.35	285.8		5.593	5	7.6	10.181	0.0188	1549.62	1.8463	5.8843	3.187	2861.077	0.5242	1.1588
5.603	5	8.61	-0.11	91.98	0.0201	3909	5	20.34	296		5.603	5	8.6	10.169	0.0201	1551.335	1.8666	4.9203	2.636	2895.665	0.5124	1.116
5.613	5	9.61	-0.11	91.7	0.0202	3873	5	20.34	306.8		5.613	5	9.6	10.169	0.0202	1557.99	1.8798	4.9203	2.6175	2928.656	0.5048	1.0737
5.623	5	10.61	-0.11	91.74	0.0217	3875	6	20.34	316.5		5.623	5	10.6	10.169	0.0217	1557.036	1.879	5.9043	3.1422	2925.713	0.5052	1.0385
5.633	5	11.61	-0.11	91.91	0.0215	3899	6	20.34	320.7		5.633	5	11.6	10.169	0.0215	1552.993	1.8702	5.9043	3.157	2904.431	0.5103	1.0236
5.643	5	12.61	-0.08	91.99	0.0205	3977	6	20.34	326.4		5.643	5	12.6	10.172	0.0205	1551.556	1.8415	5.8993	3.2035	2857.206	0.527	1.0046
5.653	5	13.61	-0.11	91.98	0.0185	3885	6	20.34	328.3		5.653	5	13.6	10.169	0.0185	1551.335	1.8753	5.9043	3.1484	2909.291	0.5073	0.9982
5.663	5	14.61	-0.12	91.99	0.0149	3907	6	20.34	328.7		5.663	5	14.6	10.168	0.0149	1550.946	1.8675	5.906	3.1626	2896.355	0.5119	0.9968
5.673	5	15.61	-0.12	92.3	0.0159	3982	7	20.34	330.8		5.673	5	15.6	10.168	0.0159	1543.647	1.8405	6.8903	3.7438	2841.01	0.5276	0.99
5.683	5	16.61	-0.02	92.52	0.0135	4018	6	20.34	332.5		5.683	5	16.6	10.178	0.0135	1540.021	1.8259	5.8893	3.2254	2811.957	0.536	0.9846
5.693	5	17.61	0.03	92.55	0.0095	4012	6	20.34	336.8		5.693	5	17.6	10.183	0.0095	1540.078	1.8271	5.8809	3.2187	2813.929	0.5353	0.971
5.703	5	18.61	0.14	92.51	0.0088	3974	6	20.34	336.4		5.703	5	18.6	10.194	0.0088	1542.676	1.8386	5.8626	3.1886	2836.368	0.5287	0.9723
5.713	5	19.61	0.24	92.55	0.0081	3992	7	20.34	336.4		5.713	5	19.6	10.204	0.0081	1543.255	1.8304	6.8204	3.7261	2824.804	0.5334	0.9722
5.723	5	20.61	0.29	92.62	0.0091	3989	6	20.34	338.5		5.723	5	20.6	10.209	0.0091	1542.378	1.8306	5.8378	3.189	2823.452	0.5333	0.9658
5.733	5	21.61	0.34	92.84	0.009	4041	7	20.34	339.4		5.733	5	21.6	10.214	0.009	1538.021	1.8115	6.8011	3.7545	2786.065	0.5444	0.9629
5.743	5	22.61	0.34	92.95	0.0088	4078	6	20.35	341.2		5.743	5	22.6	10.214	0.0088	1535.478	1.7987	5.8296	3.241	2761.826	0.5518	0.9576
5.753	5	23.61	0.38	92.97	0.0077	3979	6	20.34	341.1		5.753	5	23.6	10.218	0.0077	1535.618	1.8325	5.823	3.1776	2814.036	0.5322	0.958
5.763	5	24.61	0.4	92.89	0.0072	4031	6	20.34	342.3		5.763	5	24.6	10.22	0.0072	1537.767	1.8139	5.8197	3.2084	2789.32	0.543	0.9544
5.773	5	25.61	0.4	92.88	0.0076	3927	6	20.34	342.2		5.773	5	25.6	10.22	0.0076	1537.999	1.8507	5.8197	3.1445	2846.436	0.5216	0.9545
5.783	5	26.61	0.45	92.54	0.0068	3848	6	20.34	341.8		5.783	5	26.6	10.225	0.0068	1546.665	1.8787	5.8115	3.0934	2905.69	0.5054	0.9557
5.793	5	27.61	0.45	92.42	0.0072	3894	7	20.34	342.5		5.793	5	27.6	10.225	0.0072	1549.477	1.8618	6.7801	3.6417	2884.805	0.5152	0.9535
5.803	5	28.61	0.45	92.36	0.0074	3905	6	20.34	342.4		5.803	5	28.6	10.225	0.0074	1550.887	1.8578	5.8115	3.1282	2881.226	0.5175	0.9541
5.813	5	29.61	0.45	92.28	0.0068	3919	6	20.35	343.1		5.813	5	29.6	10.225	0.0068	1552.771	1.8527	5.8115	3.1367	2876.854	0.5205	0.9518
5.823	5	30.61	0.4	92.49	0.0075	3925	6	20.34	342		5.823	5	30.6	10.22	0.0075	1547.078	1.8515	5.8197	3.1433	2864.356	0.5212	0.9552
5.833	5	31.61	0.4	92.58	0.0074	3938	6	20.35	338.3		5.833	5	31.6	10.22	0.0074	1544.974	1.8468	5.8197	3.1513	2853.229	0.5239	0.9664
5.843	5	32.61	0.45	92.65	0.0068	3944	6	20.34	336.2		5.843	5	32.6	10.225	0.0068	1544.095	1.8437	5.8115	3.152	2846.889	0.5257	0.9729
5.853	5	33.61	0.34	92.68	0.0065	3944	6	20.33	334.5		5.853	5	33.6	10.214	0.0065	1541.736	1.8457	5.8296	3.1584	2845.6	0.5245	0.9782
5.863	5	34.61	0.35	92.52	0.0044	3892	6	20.35	333.6		5.863	5	34.6	10.215	0.0044	1545.62	1.8643	5.8279	3.126	2881.568	0.5137	0.9811
5.873	5	35.61	0.31	92.22	0.0042	3861	6	20.34	331.3		5.873	5	35.6	10.211	0.0042	1552.059	1.8765	5.8345	3.1093	2912.364	0.5067	0.9884
5.883	5	36.61	0.3	92.14	0.0043	3860	6	20.34	329.9		5.883	5	36.6	10.21	0.0043	1553.797	1.877	5.8361	3.1093	2916.483	0.5064	0.993
5.893	5	37.61	0.25	92.23	0.0056	3886	6	20.35	322.8		5.893	5	37.6	10.205	0.0056	1550.912	1.8684	5.8444	3.1281	2897.67	0.5114	1.0163
5.903	5	38.61	0.21	92.38	0.005	3935	4	20.35	317.8		5.903	5	38.6	10.201	0.005	1546.778	1.8513	3.9007	2.107	2863.552	0.5213	1.0336
5.913	5	39.61	0.24	92.54	0.0052	3948	5	20.34	314.3		5.913	5	39.6	10.204	0.0052	1543.488	1.8461	4.8717	2.6389	2849.411	0.5243	1.0461
5.923	5	40.61	0.17	92.86	0.0057	4078	6	20.34	311.8		5.923	5	40.6	10.197	0.0057	1534.999	1.8017	5.8576	3.2512	2765.568	0.5501	1.0553
5.933	5	41.61	0.15	92.97	0.0046	3993	6	20.35	312.8		5.933	5	41.6	10.195	0.0046	1532.161	1.8317	5.861	3.1998	2806.432	0.5327	1.0515
5.943	5	42.61	0.14	92.88	0.0044	4000	5	20.34	314.9		5.943	5	42.6	10.194	0.0044	1534.086	1.8294	4.8855	2.6706	2806.439	0.534	1.044
5.953	5	43.61	0.14	92.86	0.0038	4036	6	20.35	315.5		5.953	5	43.6	10.194	0.0038	1534.548	1.8168	5.8626	3.227	2787.901	0.5413	1.042
5.963	5	44.61	0.1	92.49	0.0032	3943	6	20.34	316.4		5.963	5	44.6	10.19	0.0032	1542.537	1.8504	5.8693	3.1719	2854.34	0.5218	1.0386
5.973	5	45.61	0.1	92.03	0.0042	3902	6	20.34	316.7		5.973	5	45.6	10.19	0.0042	1553.354	1.8653	5.8693	3.1466	2897.418	0.5132	1.0377
5.983	5	46.61	0.15	92.25	0.0042	3994	6	20.35	316.9		5.983	5	46.6	10.195	0.0042	1548.921	1.8313	5.861	3.2004	2836.584	0.5329	1.037
5.993	5	47.61	0.11	92.76	0.0031	4043	7	20.35	317.9		5.993	5	47.6	10.191	0.0031	1536.409	1.8149	6.8455	3.772	2788.355	0.5424	1.0332
6.003	5	48.61	0.13	93.3	0.0024	4101	7	20.35	318.3		6.003	5	48.6	10.193	0.0024	1524.301	1.7945	6.8417	3.8126	2735.346	0.5542	1.0319
6.013	5	49.61	0.21	93.44	0.0022	4119	6	20.35	318.3		6.013	5	49.6	10.201	0.0022	1522.31	1.787	5.851	3.2743	2720.301	0.5586	1.032
6.023	5	50.61	0.2	93.59	0.0019	4176	7	20.35	321.2		6.023	5	50.6	10.2	0.0019	1518.761	1.7679	6.8281	3.8622	2685.088	0.5696	1.0219
6.033	5	51.61	0.2	93.46	0.0011	4147	6	20.34	319.3		6.033	5	51.6	10.2	0.0011	1521.707	1.7777	5.8527	3.2923	2705.084	0.564	1.0284
6.043	5	52.61	0.25	93.74	0.001	4127	6	20.35	320.9		6.043	5	52.6	10.205	0.001	1516.12	1.7835	5.8444	3.2768	2704.065	0.5606	1.0228
6.053	5	53.61	0.2	93.75	0.0011	4184	6	20.35	321.1		6.053	5	53.6	10.2	0.0011	1515.151	1.7653	5.8527	3.3154	2674.668	0.5712	1.0221
6.063	5	54.61	0.36	93.83	0.0016	4164	6	20.35	320.9		6.063	5	54.6	10.216	0.0016	1515.727	1.7692	5.8263	3.2932	2681.597	0.5689	1.0231
6.073	5	55.61	0.44	93.42	0.0021	4110	6	20.34	318.9		6.073	5	55.6	10.224	0.0021	1526.198	1.786	5.8131	3.2548	2725.773	0.5592	1.0298
6.083	5	56.61	0.53	93	0.0033	4030	6	20.34	318.9		6.083	5	56.6	10.233	0.0033	1537.179	1.8119	5.7984	3.2001	2785.246	0.5441	1.03
6.093	5	57.61	0.58	92.91	0.0058	4000	6	20.35	318.2		6.093	5	57.6	10.238	0.0058	1540.012	1.8215	5.7902	3.1788	2805.172	0.5386	1.0322
6.103	5	58.61	0.74	92.57	0.0037	3956	6	20.34	315.9		6.103	5	58.6	10.254	0.0037	1550.348	1.8342	5.7642	3.1426	2843.698	0.5312	1.0403
6.113	5	59.61	0.69	92.46	0.0033	3847	6	20.34	314.2		6.113	5	59.6	10.249	0.0033	1552.173	1.8747	5.7723	3.0791	2909.784	0.5077	1.0465
6.123	5	60.61	0.68	92.05	0.0019	3878	6	20.35	308.7		6.123	5	60.6	10.248	0.0019	1561.719	1.8634	5.7739	3.0985	2910.178	0.5142	1.0666
6.133	5	61.61	0.63	93.21	0.0011	4078	6	20.35	306.6		6.133	5	61.6	10.243	0.0011	1533.843	1.7936	5.7821	3.2238	2751.073	0.5548	1.0746
6.143	5	62.61	0.58	94.81	0.0008	4103	6	20.35	303.6		6.143	5	62.6	10.238	0.0008	1497.221	1.7859	5.7902	3.2421	2673.925	0.5592	1.086
6.153	5	63.61	0.53	98.22	0.0012	4169	6	20.36	302.3		6.153	5	63.6	10.233	0.0012	1425.407	1.7646	5.7984	3.286	2515.239	0.5716	1.0908
6.163	5	64.61	0.45	94.26	0.001	4087	6	20.35	298.2		6.163	5	64.6	10.225	0.001	1507.445	1.7937	5.8115	3.24	2703.838	0.5547	1.107
6.173	5	65.61	0.43	103.73	0.0013	4080	6	20.34	301.1		6.173	5	65.6	10.223	0.0013	1322.51	1.7964	5.8148	3.2369	2375.763	0.5531	1.0956
6.183	5	66.61	0.39	93.42	0.0011	4104	6	20.35	297.8		6.183	5	66.6	10.219	0.0011	1525.452	1.7889	5.8213	3.2541	2728.887	0.5575	1.1088
6.193	5	67.61	0.34	103.39	0.0012	4067	6	20.35	296.8		6.193	5	67.6	10.214	0.0012	1327.183	1.8025	5.8296	3.2342	2392.195	0.5496	1.1126
6.203	5	68.61	0.33	93.24	0.0009	4088	6	20.35	292		6.203	5	68.6	10.213	0.0009	1528.663	1.7954	5.8312	3.2478	2744.594	0.5537	1.1325
6.213	5	69.61	0.32	92.4	0.0012	4080	6	20.35	290.9		6.213	5	69.6	10.212	0.0012	1547.976	1.7983	5.8329	3.2435	2783.788	0.552	1.137
6.223	5	70.61	0.32	92.82	0.0028	4114	6	20.35	290.8		6.223	5	70.6	10.212	0.0028	1538.183	1.7867	5.8329	3.2645	2748.316	0.5587	1.1375
6.233	5	71.61	0.29	93.02	0.0033	4149	6	20.35	291.8		6.233	5	71.6	10.209	0.0033	1533.113	1.7754	5.8378	3.2881	2721.927	0.5653	1.1333
6.243	5	72.61	0.24	93.16	0.0031	4170	6	20.35	289.1		6.243	5	72.6	10.204	0.0031	1529.147	1.7693	5.8461	3.3042	2705.453	0.5689	1.1448
6.253	5	73.61	0.24	93.02	0.0017	4052	6	20.35	290.5		6.253	5	73.6	10.204	0.0017	1532.362	1.8094	5.8461	3.2309	2772.68	0.5456	1.1389
6.263	5	74.61	0.19	93.17	0.0012	4113	6	20.35	291.4		6.263	5	74.6	10.199	0.0012	1528.169	1.7893	5.8543	3.2718	2734.423	0.5572	1.1348
6.273	5	75.61	0.14	93.81	0.0012	4099	6	20.35	292.3		6.273	5	75.6	10.194	0.0012	1512.912	1.795	5.8626	3.2661	2715.677	0.5539	1.1311
6.283	5	76.61	0.13	98.56	0.0006	4172	6	20.36	292.7		6.283	5	76.6	10.193	0.0006	1413.143	1.7705	5.8643	3.3122	2501.965	0.5682	1.1296
6.293	5	77.61	0.11	103.94	0.0003	4100	6	20.35	292.3		6.293	5	77.6	10.191	0.0003	1314.798	1.7952	5.8676	3.2685	2360.308	0.5538	1.131
6.303	5	78.61	0.06	107.87	0.0003	4024	5	20.35	294.6		6.303	5	78.6	10.186	0.0003	1250.737	1.8224	4.8966	2.6869	2279.32	0.5381	1.1215
6.313	5	79.61	0.04	107.1	0.0003	3947	5	20.36	294.3		6.313	5	79.6	10.184	0.0003	1262.427	1.8501	4.8994	2.6482	2335.579	0.522	1.1229
6.323	5	80.61	-0.01	112.62	0.0002	3992	5	20.35	297.1		6.323	5	80.6	10.179	0.0002	1180.995	1.8349	4.9063	2.6739	2167.027	0.5308	1.1116
6.333	5	81.61	-0.04	111.94	0.0002	3938	6	20.35	296.7		6.333	5	81.6	10.176	0.0002	1190.036	1.8548	5.8926	3.177	2207.24	0.5193	1.113
6.343	5	82.61	0	111.82	0.0002	3894	5	20.35	294.1		6.343	5	82.6	10.18	0.0002	1192.177	1.87	4.9049	2.6229	2229.398	0.5104	1.1238
6.353	5	83.61	0.07	111.83	0.0002	4016	6	20.35	291.8		6.353	5	83.6	10.187	0.0002	1192.857	1.825	5.8743	3.2188	2176.976	0.5365	1.1332
6.363	5	84.61	0.06	107.04	0.0003	4127	6	20.35	293		6.363	5	84.6	10.186	0.0003	1263.615	1.7869	5.8759	3.2884	2257.916	0.5587	1.1281
6.373	5	85.61	0.06	112.69	0.0002	4143	6	20.35	295		6.373	5	85.6	10.186	0.0002	1180.849	1.7815	5.8759	3.2984	2103.631	0.5618	1.1199
6.383	5	86.61	0.1	112.19	0.0002	4066	6	20.35	298		6.383	5	86.6	10.19	0.0002	1188.2	1.8071	5.8693	3.248	2147.138	0.547	1.1081
6.393	5	87.61	0.12	112.19	0.0003	4101	6	20.35	298.8		6.393	5	87.6	10.192	0.0003	1188.433	1.7947	5.8659	3.2685	2132.843	0.5541	1.1045
6.403	5	88.61	0.09	112.27	0.0002	4150	6	20.34	302.4		6.403	5	88.6	10.189	0.0002	1186.976	1.7786	5.8709	3.3009	2111.123	0.5635	1.0905
6.413	5	89.61	0.11	112.59	0.0002	4172	6	20.35	302.2		6.413	5	89.6	10.191	0.0002	1182.799	1.7708	5.8676	3.3134	2094.553	0.568	1.0912
6.423	5	90.61	0.09	112.6	0.0002	4165	6	20.35	302.2		6.423	5	90.6	10.189	0.0002	1182.43	1.7735	5.8709	3.3103	2097.081	0.5664	1.0912
6.433	5	91.61	0.14	112.67	0.0001	4205	16	20.35	303.6		6.433	5	91.6	10.194	0.0001	1182.05	1.7594	15.6337	8.886	2079.64	0.5746	1.086
6.443	5	92.61	0.11	112.16	0.0001	4174	7	20.35	304.9		6.443	5	92.6	10.191	0.0001	1188.732	1.7702	6.8455	3.8672	2104.265	0.5683	1.081
6.453	5	93.61	0.1	112.06	0.0002	4135	7	20.35	307.9		6.453	5	93.6	10.19	0.0002	1190.004	1.7835	6.8475	3.8394	2122.324	0.5606	1.0697
6.463	5	94.61	0.08	112.09	0.0002	4174	7	20.35	305.2		6.463	5	94.6	10.188	0.0002	1189.353	1.7707	6.8514	3.8693	2105.984	0.568	1.0796
6.473	5	95.61	0.11	111.77	0.0002	4158	8	20.34	304.3		6.473	5	95.6	10.191	0.0002	1194.165	1.7755	7.8235	4.4063	2120.281	0.5652	1.083
6.483	5	96.61	0.16	112.16	0.0001	4154	8	20.35	305.1		6.483	5	96.6	10.196	0.0001	1189.315	1.776	7.8124	4.3989	2112.232	0.565	1.0803
6.493	5	97.61	0.22	120.99	0.0001	4147	7	20.35	306.6		6.493	5	97.6	10.202	0.0001	1078.892	1.7773	6.8243	3.8396	1917.532	0.5642	1.0744
6.503	5	98.61	0.32	115.74	0.0001	4085	7	20.35	305.4		6.503	5	98.6	10.212	0.0001	1143.433	1.7966	6.805	3.7877	2054.32	0.553	1.0789
6.513	5	99.61	0.35	115.75	0.0002	4001	7	20.35	303		6.513	5	99.6	10.215	0.0002	1143.641	1.8253	6.7992	3.725	2087.46	0.5364	1.0883
6.523	5	100.61	0.42	131.12	0.0001	4099	7	20.34	298.5		6.523	5	100.6	10.222	0.0001	976.4066	1.7901	6.7858	3.7908	1747.849	0.5568	1.1058
6.533	5	101.61	0.52	111.35	0.0002	4150	7	20.35	293.7		6.533	5	101.6	10.232	0.0002	1204.899	1.7711	6.7667	3.8206	2133.995	0.5678	1.1253
6.543	5	102.61	0.57	116.13	0.0002	4102	6	20.35	286		6.543	5	102.6	10.237	0.0002	1141.249	1.7864	5.7919	3.2421	2038.771	0.5589	1.1582
6.553	5	103.61	0.45	112.21	0.0001	4102	6	20.35	270.7		6.553	5	103.6	10.225	0.0001	1192.003	1.7885	5.8115	3.2493	2131.94	0.5577	1.2285
6.563	5	104.61	0.5	112.5	0.0001	4177	6	20.35	268.6		6.563	5	104.6	10.23	0.0001	1188.567	1.7624	5.8033	3.2928	2094.766	0.5728	1.2393
6.573	5	105.61	0.6	112.63	0.0001	4133	7	20.35	267.5		6.573	5	105.6	10.24	0.0001	1187.935	1.7754	6.7515	3.8027	2109.09	0.5653	1.2445
6.583	5	106.61	0.71	112.71	0.0001	4138	6	20.35	266.3		6.583	5	106.6	10.251	0.0001	1188.108	1.7718	5.7691	3.256	2105.137	0.5674	1.2507
6.593	5	107.61	0.75	112.39	0.0002	4126	6	20.35	265.8		6.593	5	107.6	10.255	0.0002	1192.997	1.7752	5.7626	3.2462	2117.79	0.5654	1.2533
6.603	5	108.61	0.79	107.61	0.0002	4066	6	20.35	264.2		6.603	5	108.6	10.259	0.0002	1263.735	1.7949	5.7561	3.2069	2268.274	0.554	1.2613
6.613	5	109.61	0.89	112.95	0.0001	4056	7	20.35	264.6		6.613	5	109.6	10.269	0.0001	1186.893	1.7966	6.6966	3.7274	2132.354	0.553	1.2595
6.623	5	110.61	0.89	999	0	4034	6	20.34	264.4		6.623	5	110.6	10.269	0	105.5862	1.8042	5.74	3.1815	190.4967	0.5486	1.2604
6.633	5	111.61	1.35	999	0	3949	6	20.35	263.2		6.633	5	111.6	10.315	0	106.0592	1.8259	5.6665	3.1035	193.6498	0.536	1.2666
6.643	5	112.61	1.38	999	0	3998	7	20.35	261.8		6.643	5	112.6	10.318	0	106.09	1.8081	6.6054	3.6532	191.8215	0.5463	1.274
6.653	5	113.61	1.59	103.11	0.0001	4104	7	20.35	259.7		6.653	5	113.6	10.339	0.0001	1348.331	1.7681	6.5668	3.714	2384.04	0.5695	1.2848
6.663	5	114.61	3.7	999	0	4012	6	20.35	260.9		6.663	5	114.6	10.55	0	108.4755	1.7636	5.3111	3.0115	191.3045	0.5722	1.2787
6.673	5	115.61	3.43	999	0	4029	6	20.35	262.4		6.673	5	115.6	10.523	0	108.1979	1.7623	5.3503	3.0359	190.6798	0.5729	1.2705
6.683	5	116.61	3.37	999	0	4081	6	20.35	258		6.683	5	116.6	10.517	0	108.1362	1.7459	5.359	3.0696	188.79	0.5825	1.2942
6.693	5	117.61	3.32	999	0	4075	6	20.36	246.6		6.693	5	117.6	10.512	0	108.0848	1.7487	5.3664	3.0688	189.0064	0.5808	1.3586
6.703	5	118.61	3.19	999	0	4052	6	20.36	226.5		6.703	5	118.6	10.499	0	107.9511	1.7586	5.3855	3.0624	189.84	0.5751	1.4889
6.713	5	119.61	3.03	999	0	4044	6	20.35	192.8		6.713	5	119.6	10.483	0	107.7866	1.764	5.4091	3.0665	190.1314	0.5719	1.7711
6.723	5	120.61	3.29	999	0	4042	6	20.35	153.8		6.723	5	120.6	10.509	0	108.0539	1.7603	5.3708	3.0511	190.2044	0.5741	2.2599
6.733	5	121.61	4.88	999	0	4113	6	20.35	119.7		6.733	5	121.6	10.668	0	109.6888	1.7107	5.1443	3.0072	187.6424	0.6029	2.961
6.743	5	122.61	6.34	999	0	4792	6	20.36	102.6		6.743	5	122.6	10.814	0	111.1899	1.4902	4.9481	3.3204	165.6977	0.7307	3.4948
6.753	6	0.4	6.51	999	0	7471	6	20.35	105		6.753	6	0.4	10.831	0	111.3647	0.957	4.9259	5.1471	106.5797	1.04	3.4102
6.763	6	1.4	6.64	999	0	4176	6	20.36	125.7		6.763	6	1.4	10.844	0	111.4984	1.663	4.9091	2.952	185.4165	0.6305	2.8076
6.773	6	2.4	6.91	999	0	4493	7	20.36	153.3		6.773	6	2.4	10.871	0	111.776	1.5642	5.6867	3.6356	174.837	0.6878	2.2667
6.783	6	3.4	6.63	999	0	5265	7	20.36	184.6		6.783	6	3.4	10.843	0	111.4881	1.369	5.7287	4.1847	152.6235	0.8011	1.8559
6.793	6	4.4	5.94	999	0	4433	7	20.36	209.7		6.793	6	4.4	10.774	0	110.7787	1.5957	5.8342	3.6563	176.7646	0.6696	1.6182
6.803	6	5.4	1.98	999	0	4085	7	20.35	228.3		6.803	6	5.4	10.378	0	106.707	1.7679	6.496	3.6745	188.6459	0.5697	1.4764
6.813	6	6.4	1.14	101.34	0.0002	4093	7	20.35	240.4		6.813	6	6.4	10.294	0.0002	1374.182	1.7796	6.6499	3.7367	2445.49	0.5629	1.3962
6.823	6	7.4	0.28	140.23	0.0001	4059	8	20.36	250.2		6.823	6	7.4	10.208	0.0001	897.0123	1.8063	7.7859	4.3105	1620.258	0.5474	1.3376
6.833	6	8.4	0.23	112.41	0.0002	3966	7	20.37	259.3		6.833	6	8.4	10.203	0.0002	1186.671	1.8398	6.8223	3.7081	2183.273	0.5279	1.2872
6.843	6	9.4	0.17	127.36	0.0002	3962	6	20.36	267.3		6.843	6	9.4	10.197	0.0002	1010.304	1.8423	5.8576	3.1795	1861.324	0.5265	1.2455
6.853	6	10.4	0.04	130.21	0.0001	4025	7	20.36	271.9		6.853	6	10.4	10.184	0.0001	981.3066	1.8224	6.8591	3.7638	1788.322	0.5381	1.2227
6.863	6	11.4	0	129.84	0.0002	4063	7	20.36	271.7		6.863	6	11.4	10.18	0.0002	984.431	1.8099	6.8669	3.7942	1781.687	0.5453	1.2237
6.873	6	12.4	0.01	130.31	0.0002	4084	6	20.37	274.6		6.873	6	12.4	10.181	0.0002	980.0732	1.8024	5.8843	3.2646	1766.523	0.5496	1.2099
6.883	6	13.4	0.01	129.58	0.0002	4188	6	20.36	274.7		6.883	6	13.4	10.181	0.0002	987.0092	1.7672	5.8843	3.3296	1744.284	0.57	1.2095
6.893	6	14.4	0.01	130.16	0.0002	4208	6	20.36	275.7		6.893	6	14.4	10.181	0.0002	981.4904	1.7606	5.8843	3.3422	1728.015	0.5739	1.2048
6.903	6	15.4	-0.05	128.77	0.0001	4184	7	20.36	277.3		6.903	6	15.4	10.175	0.0001	994.2349	1.7696	6.8767	3.886	1759.416	0.5687	1.1971
6.913	6	16.4	-0.05	113.24	0.0002	4192	7	20.36	278.6		6.913	6	16.4	10.175	0.0002	1172.1	1.767	6.8767	3.8918	2071.045	0.5702	1.1914
6.923	6	17.4	0	124.32	0.0001	4330	6	20.37	285.3		6.923	6	17.4	10.18	0.0001	1039.943	1.7211	5.8859	3.4198	1789.879	0.5968	1.1612
6.933	6	18.4	0.05	130.27	0.0001	4249	6	20.36	288.2		6.933	6	18.4	10.185	0.0001	980.8358	1.7464	5.8776	3.3655	1712.963	0.5821	1.1486
6.943	6	19.4	0.05	122.9	0.0002	4237	6	20.36	290.3		6.943	6	19.4	10.185	0.0002	1055.769	1.7504	5.8776	3.3579	1847.975	0.5798	1.1394
6.953	6	20.4	0.1	123.8	0.0001	4321	6	20.36	289.5		6.953	6	20.4	10.19	0.0001	1046.523	1.7223	5.8693	3.4078	1802.443	0.5961	1.1431
6.963	6	21.4	0.19	130.95	0.0001	4175	7	20.36	287.3		6.963	6	21.4	10.199	0.0001	975.7941	1.7685	6.8301	3.8622	1725.646	0.5693	1.1525
6.973	6	22.4	0.25	146.45	0.0001	4210	6	20.37	284		6.973	6	22.4	10.205	0.0001	850.275	1.7558	5.8444	3.3286	1492.915	0.5767	1.1669
6.983	6	23.4	0.31	131.66	0.0001	4132	7	20.36	281.7		6.983	6	23.4	10.211	0.0001	970.3506	1.7808	6.8069	3.8224	1728.005	0.5622	1.177
6.993	6	24.4	0.31	127.73	0.0001	4281	7	20.37	279.6		6.993	6	24.4	10.211	0.0001	1007.996	1.7316	6.8069	3.931	1745.453	0.5907	1.1865
7.003	6	25.4	0.3	128.37	0.0001	4248	7	20.38	280.1		7.003	6	25.4	10.21	0.0001	1001.57	1.7425	6.8088	3.9076	1745.217	0.5844	1.1844
7.013	6	26.4	0.27	142.38	0	4213	7	20.37	281.8		7.013	6	26.4	10.207	0	880.2932	1.7545	6.8146	3.8841	1544.447	0.5775	1.1766
7.023	6	27.4	0.3	142.11	0.0001	4181	7	20.37	286.2		7.023	6	27.4	10.21	0.0001	882.6072	1.7646	6.8088	3.8587	1557.404	0.5716	1.1574
7.033	6	28.4	0.35	129.83	0.0001	4038	6	20.37	290.1		7.033	6	28.4	10.215	0.0001	987.911	1.8123	5.8279	3.2157	1790.417	0.5439	1.1406
7.043	6	29.4	0.36	126.21	0.0001	4058	6	20.37	294		7.043	6	29.4	10.216	0.0001	1023.852	1.8052	5.8263	3.2275	1848.273	0.548	1.1243
7.053	6	30.4	0.35	132.37	0.0001	4160	7	20.37	298.1		7.053	6	30.4	10.215	0.0001	964.2251	1.7707	6.7992	3.8399	1707.347	0.568	1.1076
7.063	6	31.4	0.35	124	0.0001	3960	6	20.38	298.3		7.063	6	31.4	10.215	0.0001	1046.941	1.8398	5.8279	3.1677	1926.169	0.528	1.1066
7.073	6	32.4	0.4	124.39	0.0001	4004	6	20.37	300.5		7.073	6	32.4	10.22	0.0001	1043.283	1.8233	5.8197	3.1918	1902.246	0.5375	1.0978
7.083	6	33.4	0.44	126.92	0.0001	3968	6	20.37	298.6		7.083	6	33.4	10.224	0.0001	1017.415	1.8353	5.8131	3.1673	1867.301	0.5305	1.1055
7.093	6	34.4	0.4	130.99	0.0001	4030	6	20.37	294.3		7.093	6	34.4	10.22	0.0001	977.4292	1.8142	5.8197	3.2078	1773.277	0.5428	1.123
7.103	6	35.4	0.41	131.55	0.0001	4125	7	20.37	288.5		7.103	6	35.4	10.221	0.0001	972.3173	1.7814	6.7877	3.8103	1732.113	0.5618	1.1475
7.113	6	36.4	0.4	143	0.0001	4093	6	20.37	282.7		7.113	6	36.4	10.22	0.0001	876.7264	1.7925	5.8197	3.2467	1571.516	0.5554	1.1727
7.123	6	37.4	0.36	145.8	0.0001	4147	6	20.38	276.2		7.123	6	37.4	10.216	0.0001	855.8264	1.7749	5.8263	3.2826	1518.989	0.5656	1.2025
7.133	6	38.4	0.31	130.99	0.0001	4174	6	20.38	271.6		7.133	6	38.4	10.211	0.0001	976.5684	1.7667	5.8345	3.3025	1725.312	0.5704	1.2241
7.143	6	39.4	0.32	130.92	0.0001	4133	6	20.37	268		7.143	6	39.4	10.212	0.0001	977.3184	1.7803	5.8329	3.2763	1739.913	0.5625	1.2423
7.153	6	40.4	0.33	999	0	4147	7	20.37	266.4		7.153	6	40.4	10.213	0	105.0104	1.7754	6.8031	3.8318	186.4357	0.5653	1.2503
7.163	6	41.4	0.35	143.23	0.0001	4084	6	20.38	266.3		7.163	6	41.4	10.215	0.0001	874.572	1.7964	5.8279	3.2441	1571.116	0.5531	1.2506
7.173	6	42.4	0.29	142.77	0.0001	4109	10	20.37	265.8		7.173	6	42.4	10.209	0.0001	877.5141	1.789	9.7297	5.4387	1569.832	0.5575	1.253
7.183	6	43.4	0.27	999	0	4079	6	20.38	265.1		7.183	6	43.4	10.207	0	104.9487	1.7996	5.8411	3.2458	188.8621	0.5513	1.2567
7.193	6	44.4	0.3	999	0	4096	6	20.37	265.9		7.193	6	44.4	10.21	0	104.9796	1.7932	5.8361	3.2546	188.2506	0.555	1.2525
7.203	6	45.4	0.27	129.52	0.0001	4191	7	20.38	268.2		7.203	6	45.4	10.207	0.0001	990.1057	1.7617	6.8146	3.8681	1744.314	0.5732	1.2409
7.213	6	46.4	0.27	154.92	0.0001	4242	6	20.38	271.4		7.213	6	46.4	10.207	0.0001	794.3809	1.745	5.8411	3.3474	1386.157	0.583	1.2252
7.223	6	47.4	0.27	131.93	0.0001	4238	6	20.38	272.1		7.223	6	47.4	10.207	0.0001	967.4882	1.7463	5.8411	3.3449	1689.486	0.5822	1.2221
7.233	6	48.4	0.27	999	0	4174	6	20.38	272.6		7.233	6	48.4	10.207	0	104.9487	1.7674	5.8411	3.3049	185.4865	0.57	1.2195
7.243	6	49.4	0.32	999	0	4139	6	20.37	273		7.243	6	49.4	10.212	0	105.0002	1.7783	5.8329	3.2801	186.7185	0.5636	1.2177
7.253	6	50.4	0.32	999	0	4137	6	20.38	272.7		7.253	6	50.4	10.212	0	105.0002	1.7789	5.8329	3.2788	186.7893	0.5633	1.219
7.263	6	51.4	0.32	143.37	0	4145	6	20.38	273.7		7.263	6	51.4	10.212	0	873.2684	1.7762	5.8329	3.2838	1551.141	0.5648	1.2143
7.273	6	52.4	0.26	128.45	0	4019	6	20.38	275		7.273	6	52.4	10.206	0	1000.392	1.8206	5.8428	3.2093	1821.275	0.5391	1.2081
7.283	6	53.4	0.42	999	0	4077	5	20.38	277.7		7.283	6	53.4	10.222	0	105.103	1.7976	4.847	2.6964	188.9342	0.5524	1.1956
7.293	6	54.4	0.48	999	0	4058	6	20.39	281.2		7.293	6	54.4	10.228	0	105.1647	1.8031	5.8066	3.2203	189.622	0.5492	1.1795
7.303	6	55.4	0.39	999	0	4179	6	20.39	283.6		7.303	6	55.4	10.219	0	105.0721	1.7637	5.8213	3.3007	185.3116	0.5721	1.1687
7.313	6	56.4	0.43	999	0	4167	6	20.38	282.2		7.313	6	56.4	10.223	0	105.1133	1.767	5.8148	3.2908	185.7318	0.5702	1.175
7.323	6	57.4	0.59	999	0	4176	6	20.39	280.9		7.323	6	57.4	10.239	0	105.2778	1.7612	5.7886	3.2867	185.4165	0.5735	1.1806
7.333	6	58.4	0.56	999	0	4226	6	20.39	279.1		7.333	6	58.4	10.236	0	105.2469	1.7452	5.7935	3.3196	183.6805	0.5828	1.1887
7.343	6	59.4	0.58	999	0	4276	6	20.39	279.1		7.343	6	59.4	10.238	0	105.2675	1.7287	5.7902	3.3496	181.9707	0.5924	1.189
7.353	6	60.4	0.48	999	0	4207	6	20.39	277.9		7.353	6	60.4	10.228	0	105.1647	1.7528	5.8066	3.3127	184.3371	0.5784	1.1945
7.363	6	61.4	0.43	153.63	0	4179	7	20.39	275.3		7.363	6	61.4	10.223	0	803.6949	1.763	6.7839	3.848	1416.891	0.5725	1.2068
7.373	6	62.4	0.43	999	0	4103	7	20.39	271		7.373	6	62.4	10.223	0	105.1133	1.7885	6.7839	3.793	187.9998	0.5577	1.2271
7.383	6	63.4	0.43	999	0	4179	6	20.4	266.3		7.383	6	63.4	10.223	0	105.1133	1.763	5.8148	3.2983	185.3116	0.5725	1.2505
7.393	6	64.4	0.39	999	0	4099	7	20.39	262.4		7.393	6	64.4	10.219	0	105.0721	1.7906	6.7916	3.7929	188.1431	0.5565	1.2705
7.403	6	65.4	0.38	999	0	4079	6	20.39	260.8		7.403	6	65.4	10.218	0	105.0618	1.7976	5.823	3.2393	188.8621	0.5524	1.2793
7.413	6	66.4	0.34	999	0	4095	7	20.39	256.8		7.413	6	66.4	10.214	0	105.0207	1.7929	6.8011	3.7935	188.2865	0.5552	1.3006
7.423	6	67.4	0.29	999	0	4052	6	20.39	254.2		7.423	6	67.4	10.209	0	104.9693	1.8085	5.8378	3.2279	189.84	0.5461	1.3151
7.433	6	68.4	0.29	999	0	4049	6	20.39	253.3		7.433	6	68.4	10.209	0	104.9693	1.8096	5.8378	3.2261	189.9492	0.5455	1.3201
7.443	6	69.4	0.29	999	0	3951	6	20.39	250		7.443	6	69.4	10.209	0	104.9693	1.8441	5.8378	3.1657	193.5746	0.5255	1.3387
7.453	6	70.4	0.24	999	0	4038	6	20.39	251		7.453	6	70.4	10.204	0	104.9179	1.8143	5.8461	3.2222	190.3504	0.5428	1.3328
7.463	6	71.4	0.2	999	0	3888	6	20.38	250.1		7.463	6	71.4	10.2	0	104.8768	1.8685	5.8527	3.1322	195.9674	0.5113	1.3381
7.473	6	72.4	0.2	999	0	3917	6	20.39	251.1		7.473	6	72.4	10.2	0	104.8768	1.858	5.8527	3.15	194.8597	0.5174	1.3324
7.483	6	73.4	0.2	999	0	3999	6	20.39	252.5		7.483	6	73.4	10.2	0	104.8768	1.8287	5.8527	3.2005	191.7845	0.5344	1.3246
7.493	6	74.4	0.15	999	0	4177	6	20.4	254.2		7.493	6	74.4	10.195	0	104.8254	1.7685	5.861	3.3141	185.3815	0.5693	1.3151
7.503	6	75.4	0.16	999	0	4132	6	20.39	257.1		7.503	6	75.4	10.196	0	104.8356	1.7834	5.8593	3.2854	186.9665	0.5607	1.2991
7.513	6	76.4	0.13	999	0	4044	6	20.4	263.1		7.513	6	76.4	10.193	0	104.8048	1.8141	5.8643	3.2325	190.1314	0.5428	1.2672
7.523	6	77.4	0.1	999	0	4059	6	20.4	266.8		7.523	6	77.4	10.19	0	104.7739	1.8095	5.8693	3.2436	189.5857	0.5455	1.248
7.533	6	78.4	0.11	999	0	4066	6	20.4	269.5		7.533	6	78.4	10.191	0	104.7842	1.8069	5.8676	3.2474	189.3319	0.5471	1.2345
7.543	6	79.4	0.02	999	0	4095	6	20.39	267.7		7.543	6	79.4	10.182	0	104.6917	1.7985	5.8826	3.2709	188.2865	0.5519	1.2435
7.553	6	80.4	0	999	0	4171	6	20.4	265.9		7.553	6	80.4	10.18	0	104.6711	1.7731	5.8859	3.3196	185.5916	0.5667	1.2527
7.563	6	81.4	0.04	999	0	4078	7	20.4	262.8		7.563	6	81.4	10.184	0	104.7123	1.804	6.8591	3.8022	188.8982	0.5487	1.2687
7.573	6	82.4	0.07	999	0	4158	6	20.4	262		7.573	6	82.4	10.187	0	104.7431	1.7762	5.8743	3.3071	186.048	0.5648	1.2726
7.583	6	83.4	0.04	999	0	4104	7	20.4	266.5		7.583	6	83.4	10.184	0	104.7123	1.7951	6.8591	3.8211	187.964	0.5539	1.2495
7.593	6	84.4	0.07	999	0	4053	7	20.4	272.3		7.593	6	84.4	10.187	0	104.7431	1.8121	6.8533	3.782	189.8037	0.544	1.2208
7.603	6	85.4	0.07	999	0	3978	6	20.4	275.7		7.603	6	85.4	10.187	0	104.7431	1.8384	5.8743	3.1952	192.5642	0.5287	1.2047
7.613	6	86.4	0.06	999	0	3978	6	20.4	275.7		7.613	6	86.4	10.186	0	104.7328	1.8386	5.8759	3.1958	192.5642	0.5286	1.2049
7.623	6	87.4	0.06	999	0	4035	6	20.4	273.7		7.623	6	87.4	10.186	0	104.7328	1.8185	5.8759	3.2311	190.4601	0.5403	1.2142
7.633	6	88.4	0.1	999	0	4050	6	20.4	271.2		7.633	6	88.4	10.19	0	104.7739	1.8126	5.8693	3.238	189.9128	0.5437	1.2265
7.643	6	89.4	0.1	999	0	4034	7	20.41	269		7.643	6	89.4	10.19	0	104.7739	1.8182	6.8475	3.7661	190.4967	0.5405	1.2369
7.653	6	90.4	0.09	999	0	4080	6	20.4	267.2		7.653	6	90.4	10.189	0	104.7637	1.8024	5.8709	3.2573	188.826	0.5497	1.246
7.663	6	91.4	0.12	999	0	4030	6	20.41	267.3		7.663	6	91.4	10.192	0	104.7945	1.8192	5.8659	3.2244	190.6432	0.5399	1.2457
7.673	6	92.4	0.07	999	0	4057	6	20.41	265.2		7.673	6	92.4	10.187	0	104.7431	1.8107	5.8743	3.2442	189.6583	0.5448	1.2563
7.683	6	93.4	0.08	999	0	3977	6	20.41	264.1		7.683	6	93.4	10.188	0	104.7534	1.8386	5.8726	3.194	192.6015	0.5286	1.2619
7.693	6	94.4	0.07	999	0	4002	5	20.41	260.3		7.693	6	94.4	10.187	0	104.7431	1.8299	4.8952	2.6751	191.6735	0.5337	1.2816
7.703	6	95.4	0.11	999	0	4062	7	20.41	260		7.703	6	95.4	10.191	0	104.7842	1.8083	6.8455	3.7857	189.4769	0.5463	1.2832
7.713	6	96.4	0.07	999	0	4117	6	20.41	259.5		7.713	6	96.4	10.187	0	104.7431	1.7901	5.8743	3.2815	187.4998	0.5568	1.2861
7.723	6	97.4	0.07	999	0	4103	6	20.41	262.5		7.723	6	97.4	10.187	0	104.7431	1.7949	5.8743	3.2728	187.9998	0.554	1.27
7.733	6	98.4	0.07	999	0	4087	6	20.41	267.3		7.733	6	98.4	10.187	0	104.7431	1.8003	5.8743	3.2628	188.5739	0.5508	1.2458
7.743	6	99.4	0.12	999	0	4064	6	21.14	270.9		7.743	6	99.4	10.192	0	104.7945	1.8074	5.8659	3.2455	189.4044	0.5468	1.2279
7.753	6	100.4	0.16	999	0	4088	6	21.97	271.7		7.753	6	100.4	10.196	0	104.8356	1.7984	5.8593	3.258	188.5379	0.552	1.2237
7.763	6	101.4	0.21	999	0	4120	6	21.82	270.8		7.763	6	101.4	10.201	0	104.8871	1.7866	5.851	3.2749	187.3929	0.5588	1.2283
7.773	6	102.4	0.31	999	0	4137	6	21.68	271.5		7.773	6	102.4	10.211	0	104.9899	1.7791	5.8345	3.2794	186.7893	0.5632	1.2247
7.783	6	103.4	0.31	999	0	4209	7	21.59	270.7		7.783	6	103.4	10.211	0	104.9899	1.7551	6.8069	3.8784	184.2678	0.5771	1.2289
7.793	6	104.4	0.37	999	0	4250	6	21.54	270.8		7.793	6	104.4	10.217	0	105.0516	1.7406	5.8246	3.3463	182.8566	0.5855	1.2281
7.803	6	105.4	0.37	999	0	4162	6	21.51	272.4		7.803	6	105.4	10.217	0	105.0516	1.7697	5.8246	3.2913	185.9074	0.5686	1.2207
7.813	6	106.4	0.41	999	0	4187	6	21.49	275		7.813	6	106.4	10.221	0	105.0927	1.7607	5.818	3.3045	185.0323	0.5739	1.208
7.823	6	107.4	0.5	999	0	4202	7	21.47	274.2		7.823	6	107.4	10.23	0	105.1852	1.7541	6.7705	3.8597	184.5105	0.5776	1.2119
7.833	6	108.4	0.56	999	0	4179	6	21.47	273.6		7.833	6	108.4	10.236	0	105.2469	1.7607	5.7935	3.2904	185.3116	0.5738	1.2148
7.843	6	109.4	0.55	999	0	4165	6	21.46	262.4		7.843	6	109.4	10.235	0	105.2366	1.7656	5.7951	3.2823	185.802	0.571	1.2705
7.853	6	110.4	0.61	999	0	4197	6	21.45	255.1		7.853	6	110.4	10.241	0	105.2983	1.7539	5.7853	3.2985	184.6841	0.5778	1.3098
7.863	6	111.4	0.55	999	0	4090	5	21.44	252.7		7.863	6	111.4	10.235	0	105.2366	1.7909	4.8293	2.6966	188.466	0.5563	1.3231
7.873	6	112.4	0.65	999	0	4032	5	21.44	247.9		7.873	6	112.4	10.245	0	105.3395	1.8091	4.8157	2.6619	190.5699	0.5458	1.3512
7.883	6	113.4	0.65	999	0	4142	6	21.43	240.5		7.883	6	113.4	10.245	0	105.3395	1.7715	5.7788	3.262	186.6124	0.5676	1.3958
7.893	6	114.4	0.76	999	0	4174	5	21.42	232.2		7.893	6	114.4	10.256	0	105.4526	1.759	4.8008	2.7293	185.4865	0.5749	1.4498
7.903	6	115.4	0.85	999	0	4036	5	21.39	220.4		7.903	6	115.4	10.265	0	105.5451	1.8042	4.7887	2.6542	190.4236	0.5486	1.5336
7.913	6	116.4	0.89	999	0	4201	5	21.37	213.6		7.913	6	116.4	10.269	0	105.5862	1.7478	4.7833	2.7367	184.5452	0.5813	1.5863
7.923	6	117.4	0.97	999	0	4126	5	21.36	210.3		7.923	6	117.4	10.277	0	105.6685	1.7714	4.7726	2.6943	187.1795	0.5676	1.6127
7.933	6	118.4	1.17	999	0	4527	5	21.35	210.6		7.933	6	118.4	10.297	0	105.8741	1.6412	4.7459	2.8918	173.7592	0.6432	1.6101
7.943	6	119.4	1.42	999	0	4644	5	21.33	207.8		7.943	6	119.4	10.322	0	106.1312	1.603	4.7129	2.94	170.1279	0.6653	1.6342
7.953	6	120.4	2.64	999	0	4330	4	21.3	201.3		7.953	6	120.4	10.444	0	107.3856	1.6776	3.6449	2.1727	180.1528	0.622	1.6909
7.963	6	121.4	3.73	999	0	4203	5	21.26	190.9		7.963	6	121.4	10.553	0	108.5063	1.7001	4.4223	2.6011	184.4758	0.609	1.7905
7.973	6	122.4	3.67	999	0	4206	4	21.24	181.3		7.973	6	122.4	10.547	0	108.4446	1.7001	3.5436	2.0843	184.3717	0.609	1.8925
7.983	6	123.4	3.68	999	0	4180	5	21.22	169.1		7.983	6	123.4	10.548	0	108.4549	1.7083	4.4283	2.5922	185.2766	0.6042	2.0404
7.993	6	124.4	3.63	999	0	4275	5	21.21	153		7.993	6	124.4	10.543	0	108.4035	1.679	4.4343	2.6411	182.0047	0.6213	2.2718
8.003	6	125.4	3.39	999	0	4233	4	21.21	128.7		8.003	6	125.4	10.519	0	108.1567	1.6961	3.5707	2.1053	183.4396	0.6113	2.7387
8.013	6	126.4	3.3	999	0	4256	3	21.2	97.8		8.013	6	126.4	10.51	0	108.0642	1.6902	2.6847	1.5884	182.6515	0.6147	3.6787
8.023	6	127.4	3.55	999	0	4173	1	21.2	66.4		8.023	6	127.4	10.535	0	108.3213	1.7127	0.8888	0.5189	185.5215	0.6017	5.5842
8.033	6	128.4	3.09	999	0	4661	1	21.19	36.9		8.033	6	128.4	10.489	0	107.8483	1.5727	0.9	0.5723	169.61	0.6829	10.521
8.043	6	129.4	2.5	999	0	10398	-1	21.18	19.5		8.043	6	129.4	10.43	0	107.2416	0.6172	-0.9148	-1.482	66.1942	1.2371	20.8645
