Geotek MSCL 7.9 - TN336_JPC32-37.raw created at 22:50:56 on 1/24/2016.											Geotek MSCL 7.9 - TN336_JPC32-37.out created at 22:52:07 on 1/24/2016.											
																						
																						
Core Depth	Section	Sect Depth	CTD 	Tr. Time 	PW Amp   	A Gamma  	Mag Sus  	Temp     	NC Res   		SB DEPTH	SECT NUM	SECT DEPTH	CT	PWAmp	PWVel	Den1	MS1	MS1	Imp	FP	RES
m		cm	mm	µsec		cps	SI x 10^-5	°C	mV		m		cm	cm		m/s	g/cc	SI x 10^-5	x 10^-8 (m^3/kg)			Ohm.m
																						
-0.638	cal	0.02	5.46	98.05	0.0022	13226	-1	17.72	4.9		-0.638	cal sect	0	10.726	0.0022							92.6082
-0.578	cal	6.02	3.01	95.97	0.0169	6470	-1	17.71	25.6		-0.578	cal sect	6	10.481	0.0169	1507.19	1.1604	-0.902			0.922	15.6156
-0.518	cal	12.02	0.44	95.6	0.0321	6752	-1	17.71	27.8		-0.518	cal sect	12	10.224	0.0321	1478.098	1.1369	-0.9689	-0.8522	1680.408	0.9357	14.2869
-0.458	cal	18.02	0.66	95.73	0.0192	6824	-2	17.71	27.5		-0.458	cal sect	18	10.246	0.0192	1478.499	1.1214	-1.9257	-1.7172	1658.039	0.9446	14.4268
-0.398	cal	24.02	3.49	96.91	0.0012	6536	-2	17.71	37.2		-0.398	cal sect	24	10.529	0.0012	1493.899	1.1429	-1.7805	-1.5579	1707.378	0.9322	10.4356
-0.338	cal	30.02	5.51	97.84	0.0071	6714	-2	17.71	96.9		-0.338	cal sect	30	10.731	0.0071	1502.731	1.0898	-1.6861	-1.5472	1637.638	0.963	3.7151
-0.278	cal	36.02	4.91	96.92	0.0126	6605	-2	17.71	611.5		-0.278	cal sect	36	10.671	0.0126	1513.832	1.1152	-1.7134	-1.5363	1688.292	0.9482	0.5107
-0.218	cal	42.02	1.56	95.4	0.0048	6623	-2	17.71	794.6		-0.218	cal sect	42	10.336	0.0048	1498.622	1.1481	-1.8778	-1.6356	1720.516	0.9292	0.3851
-0.158	cal	48.02	0.9	95.12	0.0333	6610	-1	17.71	789.7		-0.158	cal sect	48	10.27	0.0333	1495.123	1.1579	-0.9564	-0.826	1731.142	0.9235	0.3877
-0.098	cal	54.02	2.03	95.86	0.0111	6666	-1	17.72	771.2		-0.098	cal sect	54	10.383	0.0111	1495.463	1.135	-0.9267	-0.8165	1697.358	0.9368	0.3977
-0.038	cal	60.02	2.81	95.36	0.0079	6454	2	17.72	562.2		-0.038	cal sect	60	10.461	0.0079	1517.626	1.1656	1.814	1.5562	1769	0.919	0.5591
0.002	1	0.2	7.21	999	0	9136	12	17.73	263.2		0.002	1	0.2	10.901	0	112.0845	0.7288	9.6723	13.2723	81.682	1.1724	1.2667
0.012	1	1.2	7.83	999	0	4911	15	17.73	296.6		0.012	1	1.2	10.963	0	112.722	1.4395	11.8963	8.2644	162.2596	0.7602	1.1135
0.022	1	2.2	7.63	105.78	0.0001	5073	16	17.74	366.8		0.022	1	2.2	10.943	0.0001	1379.08	1.402	12.7557	9.0984	1933.432	0.7819	0.8856
0.032	1	3.2	7.22	98	0.0004	4906	17	17.74	450		0.032	1	3.2	10.902	0.0004	1523.264	1.4488	13.6988	9.4553	2206.892	0.7548	0.7106
0.042	1	4.2	6.81	999	0	4955	18	17.73	519.6		0.042	1	4.2	10.861	0	111.6732	1.4418	14.6614	10.1686	161.015	0.7588	0.6086
0.052	1	5.2	2.14	95.03	0.0009	5080	18	17.74	569.7		0.052	1	5.2	10.394	0.0009	1515.16	1.4742	16.6302	11.2805	2233.704	0.74	0.5511
0.062	1	6.2	1.33	95.39	0.0024	5094	19	17.73	604.2		0.062	1	6.2	10.313	0.0024	1495.505	1.4822	17.954	12.1129	2216.671	0.7354	0.5173
0.072	1	7.2	0.86	95.17	0.0063	5136	19	17.74	621.8		0.072	1	7.2	10.266	0.0063	1493.454	1.4783	18.1919	12.3063	2207.707	0.7377	0.5016
0.082	1	8.2	0.52	95.02	0.0033	5204	19	17.74	630.1		0.082	1	8.2	10.232	0.0033	1491.763	1.4659	18.3667	12.529	2186.826	0.7448	0.4945
0.092	1	9.2	0.3	95.24	0.0065	5275	20	17.74	634.1		0.092	1	9.2	10.21	0.0065	1483.796	1.4514	19.4538	13.4039	2153.523	0.7533	0.4911
0.102	1	10.2	0.26	95.22	0.0117	5178	20	17.74	634.2		0.102	1	10.2	10.206	0.0117	1483.646	1.4762	19.4758	13.1929	2190.219	0.7388	0.4911
0.112	1	11.2	0.26	95.27	0.0104	5097	20	17.74	632.5		0.112	1	11.2	10.206	0.0104	1482.568	1.497	19.4758	13.01	2219.384	0.7268	0.4924
0.122	1	12.2	0.24	95.3	0.0044	5259	20	17.74	627.1		0.122	1	12.2	10.204	0.0044	1481.632	1.4562	19.4869	13.3821	2157.532	0.7505	0.497
0.132	1	13.2	0.22	94.54	0.0057	5005	21	17.74	620.6		0.132	1	13.2	10.202	0.0057	1497.871	1.5217	20.4728	13.4543	2279.241	0.7125	0.5026
0.142	1	14.2	0.18	94.84	0.0134	4922	21	17.74	613.3		0.142	1	14.2	10.198	0.0134	1490.718	1.5445	20.496	13.2706	2302.367	0.6993	0.509
0.152	1	15.2	0.19	94.98	0.0068	4952	21	17.75	606.8		0.152	1	15.2	10.199	0.0068	1487.819	1.5362	20.4902	13.3379	2285.637	0.704	0.5149
0.162	1	16.2	0.19	94.94	0.0047	4905	22	17.75	601.1		0.162	1	16.2	10.199	0.0047	1488.688	1.5489	21.4659	13.8586	2305.867	0.6967	0.5202
0.172	1	17.2	0.24	94.86	0.0073	4907	22	17.74	596.6		0.172	1	17.2	10.204	0.0073	1491.159	1.5476	21.4355	13.8506	2307.753	0.6974	0.5245
0.182	1	18.2	0.29	94.77	0.0101	4829	22	17.75	592		0.182	1	18.2	10.209	0.0101	1493.854	1.5682	21.4053	13.6492	2342.725	0.6855	0.5288
0.192	1	19.2	0.34	94.7	0.0068	4895	22	17.76	591.1		0.192	1	19.2	10.214	0.0068	1496.118	1.5494	21.375	13.796	2318.038	0.6964	0.5297
0.202	1	20.2	0.39	94.65	0.0098	4783	22	17.76	592.6		0.202	1	20.2	10.219	0.0098	1497.948	1.5795	21.3449	13.5136	2366.018	0.6789	0.5282
0.212	1	21.2	0.44	94.52	0.0079	4776	22	17.75	592.9		0.212	1	21.2	10.224	0.0079	1501.542	1.5807	21.3148	13.4844	2373.48	0.6783	0.528
0.222	1	22.2	0.44	94.86	0.0102	4897	22	17.75	595.5		0.222	1	22.2	10.224	0.0102	1494.082	1.5473	21.3148	13.7754	2311.805	0.6976	0.5254
0.232	1	23.2	0.55	94.91	0.0169	4812	22	17.75	597.7		0.232	1	23.2	10.235	0.0169	1494.597	1.569	21.2488	13.5432	2344.967	0.6851	0.5234
0.242	1	24.2	0.56	94.82	0.0138	4859	23	17.76	596.8		0.242	1	24.2	10.236	0.0138	1496.71	1.5559	22.2084	14.2741	2328.662	0.6927	0.5242
0.252	1	25.2	0.64	94.69	0.0194	4963	23	17.75	596.5		0.252	1	25.2	10.244	0.0194	1500.732	1.5265	22.1584	14.5153	2290.942	0.7097	0.5245
0.262	1	26.2	0.69	94.99	0.0245	4966	23	17.76	593.1		0.262	1	26.2	10.249	0.0245	1494.895	1.525	22.1272	14.5096	2279.723	0.7106	0.5278
0.272	1	27.2	0.77	95.21	0.0135	4832	24	17.75	592.9		0.272	1	27.2	10.257	0.0135	1491.277	1.5601	23.0374	14.7668	2326.505	0.6902	0.528
0.282	1	28.2	0.88	95.08	0.0132	4853	24	17.76	589.1		0.282	1	28.2	10.268	0.0132	1495.703	1.5526	22.9663	14.7917	2322.296	0.6945	0.5316
0.292	1	29.2	0.86	95.36	0.0142	4867	24	17.75	585		0.292	1	29.2	10.266	0.0142	1489.337	1.5491	22.9792	14.8337	2307.168	0.6966	0.5356
0.302	1	30.2	0.9	96.03	0.0073	4850	24	17.76	583.2		0.302	1	30.2	10.27	0.0073	1475.575	1.5532	22.9534	14.7785	2291.809	0.6942	0.5374
0.312	1	31.2	0.95	96.53	0.0067	4830	25	17.76	569.5		0.312	1	31.2	10.275	0.0067	1465.763	1.5579	23.8763	15.326	2283.503	0.6915	0.5514
0.322	1	32.2	0.95	107.36	0.0048	4862	26	17.76	561.6		0.322	1	32.2	10.275	0.0048	1269.616	1.5491	24.8313	16.0292	1966.8	0.6966	0.5597
0.332	1	33.2	0.96	101.81	0.0037	4823	26	17.76	546.7		0.332	1	33.2	10.276	0.0037	1363.226	1.5597	24.8244	15.9164	2126.181	0.6904	0.5761
0.342	1	34.2	0.94	96.75	0.0034	4873	26	17.76	533.8		0.342	1	34.2	10.274	0.0034	1461.035	1.5463	24.8383	16.0632	2259.177	0.6982	0.5912
0.352	1	35.2	0.91	96.46	0.0027	4701	27	17.76	520.8		0.352	1	35.2	10.271	0.0027	1466.657	1.5946	25.8153	16.1892	2338.733	0.6702	0.6072
0.362	1	36.2	0.96	96.31	0.0028	4670	27	17.78	511.4		0.362	1	36.2	10.276	0.0028	1470.521	1.6027	25.7791	16.085	2356.781	0.6655	0.6191
0.372	1	37.2	0.97	96.37	0.0023	4536	28	17.77	500.8		0.372	1	37.2	10.277	0.0023	1469.402	1.6417	26.7264	16.2798	2412.314	0.6429	0.6333
0.382	1	38.2	0.96	96.79	0.002	4506	28	17.78	492		0.382	1	38.2	10.276	0.002	1460.489	1.6508	26.7339	16.1942	2411.018	0.6376	0.6455
0.392	1	39.2	0.9	96.61	0.0016	4689	27	17.77	485.7		0.392	1	39.2	10.27	0.0016	1463.38	1.5982	25.8226	16.1575	2338.743	0.6681	0.6545
0.402	1	40.2	0.94	101.53	0.0028	4761	27	17.77	480.7		0.402	1	40.2	10.274	0.0028	1368.043	1.5772	25.7936	16.3541	2157.67	0.6803	0.6619
0.412	1	41.2	0.92	101.77	0.0031	4782	26	17.77	480.8		0.412	1	41.2	10.272	0.0031	1363.419	1.5716	24.8523	15.813	2142.798	0.6835	0.6616
0.422	1	42.2	0.83	107.03	0.0028	4853	26	17.78	483.3		0.422	1	42.2	10.263	0.0028	1273.325	1.5534	24.9151	16.0391	1977.985	0.6941	0.658
0.432	1	43.2	0.86	97.04	0.0018	4768	25	17.78	489.2		0.432	1	43.2	10.266	0.0018	1453.902	1.5765	23.9367	15.1838	2292.023	0.6807	0.6495
0.442	1	44.2	0.86	101.67	0.0042	4692	24	17.78	494		0.442	1	44.2	10.266	0.0042	1364.434	1.5979	22.9792	14.3805	2180.29	0.6682	0.6426
0.452	1	45.2	0.84	106.85	0.0033	4709	24	17.77	499.9		0.452	1	45.2	10.264	0.0033	1276.299	1.5934	22.9921	14.4295	2033.671	0.6709	0.6346
0.462	1	46.2	0.8	97.62	0.0018	4737	23	17.78	503.4		0.462	1	46.2	10.26	0.0018	1441.214	1.5861	22.0589	13.9076	2285.908	0.6751	0.6298
0.472	1	47.2	0.8	97.56	0.0019	4840	23	17.78	504.1		0.472	1	47.2	10.26	0.0019	1442.429	1.5574	22.0589	14.1637	2246.469	0.6918	0.6288
0.482	1	48.2	0.75	97.43	0.0019	4802	23	17.79	506.2		0.482	1	48.2	10.255	0.0019	1444.366	1.5687	22.0899	14.0819	2265.741	0.6852	0.6261
0.492	1	49.2	0.95	96.63	0.002	4841	22	17.78	507.5		0.492	1	49.2	10.275	0.002	1463.675	1.5549	21.0111	13.5131	2275.828	0.6932	0.6243
0.502	1	50.2	1.05	96.18	0.002	4871	22	17.79	511.4		0.502	1	50.2	10.285	0.002	1474.552	1.5452	20.9523	13.5598	2278.441	0.6989	0.6192
0.512	1	51.2	1.17	96.43	0.002	4899	22	17.78	520.3		0.512	1	51.2	10.297	0.002	1471	1.5358	20.882	13.5968	2259.162	0.7043	0.6077
0.522	1	52.2	1.2	96.32	0.0021	4834	22	17.78	524.9		0.522	1	52.2	10.3	0.0021	1473.745	1.553	20.8645	13.4348	2288.748	0.6943	0.602
0.532	1	53.2	1.32	96.43	0.0027	4877	22	17.79	526.9		0.532	1	53.2	10.312	0.0027	1473.143	1.5395	20.7946	13.5073	2267.909	0.7021	0.5995
0.542	1	54.2	1.25	96.66	0.0023	4830	21	17.79	525.4		0.542	1	54.2	10.305	0.0023	1467.322	1.5534	19.8883	12.8034	2279.276	0.6941	0.6014
0.552	1	55.2	1.46	101.63	0.0031	4855	22	17.78	524.9		0.552	1	55.2	10.326	0.0031	1373.138	1.5434	20.7135	13.4209	2119.275	0.6999	0.602
0.562	1	56.2	1.45	96.16	0.0035	4795	22	17.78	520.5		0.562	1	56.2	10.325	0.0035	1480.711	1.56	20.7193	13.2818	2309.867	0.6903	0.6075
0.572	1	57.2	1.37	95.95	0.0042	4830	23	17.79	517.3		0.572	1	57.2	10.317	0.0042	1484.033	1.5516	21.7095	13.9921	2302.554	0.6952	0.6115
0.582	1	58.2	1.35	101.56	0.003	4765	22	17.79	513.6		0.582	1	58.2	10.315	0.003	1372.953	1.5698	20.7772	13.2355	2155.277	0.6846	0.6163
0.592	1	59.2	1.25	95.69	0.0023	4728	22	17.79	508		0.592	1	59.2	10.305	0.0023	1487.872	1.5817	20.8353	13.1727	2353.376	0.6777	0.6236
0.602	1	60.2	1.26	95.85	0.0036	4792	22	17.79	505.4		0.602	1	60.2	10.306	0.0036	1484.587	1.5637	20.8295	13.3208	2321.415	0.6881	0.6271
0.612	1	61.2	1.16	95.56	0.0059	4774	22	17.79	499.2		0.612	1	61.2	10.296	0.0059	1489.368	1.5702	20.8879	13.3027	2338.602	0.6843	0.6354
0.622	1	62.2	1.05	95.29	0.004	4769	22	17.79	493.8		0.622	1	62.2	10.285	0.004	1493.61	1.5733	20.9523	13.3177	2349.855	0.6826	0.643
0.632	1	63.2	1.1	94.99	0.0038	4790	21	17.79	488.7		0.632	1	63.2	10.29	0.0038	1500.875	1.5667	19.9719	12.7481	2351.367	0.6864	0.6503
0.642	1	64.2	0.98	94.93	0.0037	4817	21	17.79	487.6		0.642	1	64.2	10.278	0.0037	1500.438	1.561	20.0392	12.8373	2342.211	0.6897	0.6518
0.652	1	65.2	1.03	95.09	0.0022	5007	22	17.8	485.9		0.652	1	65.2	10.283	0.0022	1497.67	1.5091	20.964	13.8914	2260.197	0.7198	0.6543
0.662	1	66.2	0.98	95.33	0.0025	4789	21	17.8	484.5		0.662	1	66.2	10.278	0.0025	1491.727	1.5688	20.0392	12.7738	2340.178	0.6852	0.6563
0.672	1	67.2	0.94	96.11	0.003	4697	21	17.8	485.4		0.672	1	67.2	10.274	0.003	1474.455	1.5953	20.0617	12.5757	2352.16	0.6698	0.6549
0.682	1	68.2	0.88	95.92	0.0037	4690	21	17.8	482		0.682	1	68.2	10.268	0.0037	1477.623	1.5982	20.0955	12.5738	2361.543	0.6681	0.6599
0.692	1	69.2	0.83	96.11	0.0037	4743	21	17.79	489.6		0.692	1	69.2	10.263	0.0037	1472.876	1.5839	20.1238	12.7048	2332.954	0.6764	0.6489
0.702	1	70.2	0.78	106.44	0.0031	4725	21	17.8	488.2		0.702	1	70.2	10.258	0.0031	1282.09	1.5898	20.1521	12.6758	2038.269	0.673	0.6509
0.712	1	71.2	0.79	106.59	0.002	4676	20	17.81	484.3		0.712	1	71.2	10.259	0.002	1279.815	1.6036	19.187	11.9649	2052.333	0.665	0.6565
0.722	1	72.2	0.69	107.19	0.0026	4751	20	17.8	481.9		0.722	1	72.2	10.249	0.0026	1269.069	1.5839	19.2411	12.1483	2010.019	0.6764	0.66
0.732	1	73.2	0.69	107.45	0.0024	4690	19	17.81	486		0.732	1	73.2	10.249	0.0024	1264.996	1.6012	18.279	11.4161	2025.471	0.6664	0.6541
0.742	1	74.2	0.65	106.81	0.002	4684	19	17.81	491.1		0.742	1	74.2	10.245	0.002	1274.571	1.6035	18.2996	11.4122	2043.789	0.665	0.6467
0.752	1	75.2	0.64	106.71	0.0015	4705	19	17.81	494.3		0.752	1	75.2	10.244	0.0015	1276.034	1.5977	18.3048	11.4572	2038.672	0.6684	0.6422
0.762	1	76.2	0.59	106.91	0.0016	4695	19	17.81	494.1		0.762	1	76.2	10.239	0.0016	1272.241	1.6013	18.3305	11.4473	2037.24	0.6663	0.6425
0.772	1	77.2	0.54	106.9	0.0022	4693	19	17.81	493		0.772	1	77.2	10.234	0.0022	1271.778	1.6027	18.3564	11.4537	2038.222	0.6655	0.6441
0.782	1	78.2	0.55	106.84	0.0018	4698	19	17.82	496		0.782	1	78.2	10.235	0.0018	1272.852	1.6011	18.3512	11.4619	2037.922	0.6664	0.6399
0.792	1	79.2	0.47	107.13	0.0021	4680	19	17.81	497.4		0.792	1	79.2	10.227	0.0021	1267.286	1.6075	18.3926	11.4419	2037.142	0.6627	0.638
0.802	1	80.2	0.39	106.75	0.0019	4672	19	17.81	499.9		0.802	1	80.2	10.219	0.0019	1272.286	1.611	18.4342	11.4424	2049.712	0.6606	0.6345
0.812	1	81.2	0.44	106.83	0.0037	4683	19	17.81	499.6		0.812	1	81.2	10.224	0.0037	1271.642	1.6071	18.4082	11.4544	2043.646	0.6629	0.6349
0.822	1	82.2	0.34	107.08	0.003	4634	19	17.81	499.6		0.822	1	82.2	10.214	0.003	1266.46	1.6229	18.4603	11.3752	2055.285	0.6538	0.6349
0.832	1	83.2	0.35	106.99	0.0024	4619	19	17.82	503.1		0.832	1	83.2	10.215	0.0024	1267.999	1.6271	18.4551	11.3424	2063.137	0.6513	0.6301
0.842	1	84.2	0.29	106.85	0.003	4661	19	17.82	508.5		0.842	1	84.2	10.209	0.003	1269.46	1.6158	18.4864	11.441	2051.201	0.6579	0.623
0.852	1	85.2	0.27	106.53	0.0033	4561	19	17.82	508.5		0.852	1	85.2	10.207	0.0033	1274.282	1.6455	18.4968	11.2409	2096.814	0.6407	0.6229
0.862	1	86.2	0.41	106.88	0.0045	4634	19	17.82	509.7		0.862	1	86.2	10.221	0.0045	1270.479	1.6217	18.4238	11.3605	2060.394	0.6544	0.6214
0.872	1	87.2	0.42	106.79	0.0034	4688	19	17.98	509		0.872	1	87.2	10.222	0.0034	1272.026	1.606	18.4186	11.4688	2042.836	0.6636	0.6223
0.882	1	88.2	0.36	106.84	0.0037	4722	18	17.99	508.3		0.882	1	88.2	10.216	0.0037	1270.489	1.5972	17.4788	10.9435	2029.214	0.6687	0.6232
0.892	1	89.2	0.42	106.58	0.0031	4704	19	17.98	509.2		0.892	1	89.2	10.222	0.0031	1275.359	1.6014	18.4186	11.5017	2042.343	0.6662	0.622
0.902	1	90.2	0.42	106.85	0.0062	4766	18	17.98	508.9		0.902	1	90.2	10.222	0.0062	1271.077	1.5838	17.4492	11.0172	2013.146	0.6764	0.6224
0.912	1	91.2	0.42	101.24	0.0051	4719	18	17.98	508		0.912	1	91.2	10.222	0.0051	1366.395	1.5971	17.4492	10.9255	2182.28	0.6687	0.6237
0.922	1	92.2	0.42	101.28	0.007	4651	18	17.98	508.8		0.922	1	92.2	10.222	0.007	1365.665	1.6166	17.4492	10.7935	2207.797	0.6574	0.6225
0.932	1	93.2	0.42	96.67	0.0042	4674	18	17.99	510.4		0.932	1	93.2	10.222	0.0042	1455.296	1.61	17.4492	10.838	2343.023	0.6613	0.6205
0.942	1	94.2	0.49	96.2	0.0038	4660	18	17.99	511.6		0.942	1	94.2	10.229	0.0038	1466.103	1.6129	17.4148	10.797	2364.729	0.6596	0.6189
0.952	1	95.2	0.59	96.38	0.0033	4657	18	17.99	510.5		0.952	1	95.2	10.239	0.0033	1463.76	1.6122	17.3658	10.7713	2359.913	0.66	0.6203
0.962	1	96.2	0.58	96.45	0.0029	4636	18	17.99	510.4		0.962	1	96.2	10.238	0.0029	1462.154	1.6185	17.3707	10.7328	2366.455	0.6563	0.6204
0.972	1	97.2	0.69	96.19	0.0028	4654	18	17.99	510.6		0.972	1	97.2	10.249	0.0028	1469.18	1.6115	17.317	10.7457	2367.613	0.6604	0.6201
0.982	1	98.2	0.68	96.25	0.004	4611	17	17.99	512.8		0.982	1	98.2	10.248	0.004	1467.774	1.6242	16.3595	10.0725	2383.928	0.653	0.6174
0.992	1	99.2	0.89	95.76	0.0046	4610	17	18	514.4		0.992	1	99.2	10.269	0.0046	1481.177	1.6211	16.2632	10.0319	2401.209	0.6548	0.6153
1.002	1	100.2	0.91	95.74	0.0041	4658	17	17.99	519.2		1.002	1	100.2	10.271	0.0041	1481.893	1.6069	16.2541	10.1151	2381.277	0.663	0.6091
1.012	1	101.2	0.76	96.04	0.0033	4725	17	18	519.8		1.012	1	101.2	10.256	0.0033	1473.351	1.5901	16.3227	10.2652	2342.794	0.6728	0.6084
1.022	1	102.2	0.8	96.28	0.0034	4677	17	18	521.6		1.022	1	102.2	10.26	0.0034	1468.862	1.6032	16.3044	10.1701	2354.841	0.6652	0.6061
1.032	1	103.2	0.96	101.6	0.0029	4665	17	18	521.9		1.032	1	103.2	10.276	0.0029	1367.035	1.6041	16.2313	10.1185	2192.888	0.6647	0.6058
1.042	1	104.2	0.95	101.86	0.0027	4718	18	18	520.2		1.042	1	104.2	10.275	0.0027	1362.19	1.5892	17.1909	10.8177	2164.729	0.6733	0.6079
1.052	1	105.2	1.1	101.52	0.0033	4703	18	18	517.5		1.052	1	105.2	10.29	0.0033	1370.356	1.5911	17.1188	10.7592	2180.357	0.6722	0.6112
1.062	1	106.2	1.17	96.52	0.0034	4637	18	18	513.7		1.062	1	106.2	10.297	0.0034	1469.111	1.6089	17.0853	10.6192	2363.667	0.6619	0.6162
1.072	1	107.2	1.21	96.11	0.0037	4664	18	18	495.3		1.072	1	107.2	10.301	0.0037	1478.329	1.6005	17.0662	10.6629	2366.087	0.6668	0.6409
1.082	1	108.2	1.33	95.88	0.0032	4690	19	18	494.6		1.082	1	108.2	10.313	0.0032	1484.953	1.5912	17.954	11.2831	2362.904	0.6721	0.6418
1.092	1	109.2	1.4	96.01	0.004	4632	19	18.01	493.9		1.092	1	109.2	10.32	0.004	1483.185	1.6068	17.9189	11.1522	2383.131	0.6631	0.6428
1.102	1	110.2	1.49	95.99	0.0041	4668	20	18	494.3		1.102	1	110.2	10.329	0.0041	1484.905	1.595	18.8147	11.7958	2368.471	0.6699	0.6422
1.112	1	111.2	1.54	96.04	0.004	4649	20	18	496.4		1.112	1	111.2	10.334	0.004	1484.557	1.5997	18.7885	11.745	2374.844	0.6672	0.6394
1.122	1	112.2	1.66	95.82	0.0044	4706	20	18.01	499.4		1.122	1	112.2	10.346	0.0044	1490.993	1.5816	18.7258	11.8396	2358.198	0.6777	0.6352
1.132	1	113.2	1.73	96.05	0.0038	4674	20	18.01	497.1		1.132	1	113.2	10.353	0.0038	1487.073	1.5896	18.6894	11.7571	2363.889	0.6731	0.6384
1.142	1	114.2	1.72	96.08	0.0021	4687	21	18.01	498.3		1.142	1	114.2	10.352	0.0021	1486.289	1.5861	19.6293	12.3759	2357.382	0.6751	0.6367
1.152	1	115.2	2.03	95.73	0.0016	4764	22	18.01	500.2		1.152	1	115.2	10.383	0.0016	1498.268	1.5598	20.3878	13.0707	2337.009	0.6904	0.634
1.162	1	116.2	2.24	96.32	0.0022	4722	22	18	500.2		1.162	1	116.2	10.404	0.0022	1488.625	1.5683	20.2696	12.9243	2334.656	0.6854	0.6341
1.172	1	117.2	2.55	96.22	0.0011	4690	22	18.02	502.8		1.172	1	117.2	10.435	0.0011	1495.2	1.5726	20.0969	12.7792	2351.392	0.6829	0.6306
1.182	1	118.2	4.22	96.76	0.0003	4729	22	18.01	500.6		1.182	1	118.2	10.602	0.0003	1507.465	1.5371	19.2011	12.4916	2317.159	0.7035	0.6336
1.192	1	119.2	4.28	97.2	0.0003	4666	23	18.02	494.5		1.192	1	119.2	10.608	0.0003	1498.94	1.5536	20.0413	12.8996	2328.81	0.6939	0.642
1.202	1	120.2	4.31	97.74	0.0002	4634	23	18.02	484		1.202	1	120.2	10.611	0.0002	1488.01	1.5621	20.0251	12.819	2324.48	0.689	0.657
1.212	1	121.2	3.83	97.72	0.0003	4662	23	18.01	463.3		1.212	1	121.2	10.563	0.0003	1481.694	1.5614	20.2872	12.9932	2313.48	0.6895	0.6886
1.222	1	122.2	3.84	97.43	0.0002	4637	23	18.02	432.2		1.222	1	122.2	10.564	0.0002	1487.887	1.5682	20.2817	12.9327	2333.372	0.6855	0.7422
1.232	1	123.2	3.56	96.48	0.001	4602	23	18.03	380.4		1.232	1	123.2	10.536	0.001	1504.068	1.5823	20.4368	12.9155	2379.956	0.6773	0.8517
1.242	1	124.2	4.09	97.57	0.0007	4573	22	18.02	303.6		1.242	1	124.2	10.589	0.0007	1488.473	1.5827	19.2688	12.1747	2355.788	0.6771	1.0858
1.252	1	125.2	5.76	999	0	4532	21	18.02	225.8		1.252	1	125.2	10.756	0	110.5936	1.5697	17.5866	11.2036	173.6016	0.6846	1.4941
1.262	1	126.2	6.67	999	0	6946	21	18.02	183.8		1.262	1	126.2	10.847	0	111.5293	1.0389	17.1681	16.5261	115.8624	0.9925	1.8646
1.272	2	0.55	6.96	999	0	6892	21	18.02	191.6		1.272	2	0.6	10.876	0	111.8274	1.0451	17.0377	16.3032	116.8657	0.9889	1.7835
1.282	2	1.55	7.12	999	0	4590	21	18.02	242.2		1.282	2	1.6	10.892	0	111.9919	1.5339	16.9664	11.0606	171.7892	0.7054	1.3854
1.292	2	2.55	7.41	999	0	4529	21	18.03	308		1.292	2	2.6	10.921	0	112.2901	1.5469	16.8382	10.8854	173.6962	0.6979	1.0692
1.302	2	3.55	7.04	999	0	4519	21	18.03	369.1		1.302	2	3.6	10.884	0	111.9097	1.5549	17.002	10.9343	174.0119	0.6932	0.8799
1.312	2	4.55	6.36	999	0	4550	21	18.03	414		1.312	2	4.6	10.816	0	111.2105	1.5559	17.3091	11.1246	173.036	0.6926	0.7775
1.322	2	5.55	2.15	999	0	4654	21	18.03	444.2		1.322	2	5.6	10.395	0	106.8818	1.5889	19.3965	12.2076	169.823	0.6735	0.7206
1.332	2	6.55	1.34	999	0	4694	20	18.04	464		1.332	2	6.6	10.314	0	106.0489	1.5899	18.8936	11.8832	168.6114	0.6729	0.6875
1.342	2	7.55	0.53	999	0	4701	19	18.04	475.3		1.342	2	7.6	10.233	0	105.2161	1.6005	18.3616	11.4722	168.4007	0.6668	0.67
1.352	2	8.55	0.42	103.82	0.0002	4755	19	18.04	484.6		1.352	2	8.6	10.222	0.0002	1320.843	1.5869	18.4186	11.6066	2096.056	0.6746	0.6561
1.362	2	9.55	0.35	103.46	0.0003	4729	18	18.03	491.2		1.362	2	9.6	10.215	0.0003	1326.107	1.5954	17.4837	10.9591	2115.615	0.6697	0.6466
1.372	2	10.55	0.31	103.8	0.0003	4810	17	18.04	496		1.372	2	10.6	10.211	0.0003	1319.762	1.5732	16.5311	10.5079	2076.259	0.6826	0.6399
1.382	2	11.55	0.29	99.37	0.0003	4785	17	18.04	497.5		1.382	2	11.6	10.209	0.0003	1399.643	1.5805	16.5404	10.4654	2212.127	0.6784	0.6378
1.392	2	12.55	0.29	98.81	0.0003	4742	17	18.04	496.4		1.392	2	12.6	10.209	0.0003	1410.473	1.5926	16.5404	10.3858	2246.327	0.6713	0.6393
1.402	2	13.55	0.3	93.58	0.0004	4678	17	18.04	496.3		1.402	2	13.6	10.21	0.0004	1520.477	1.6107	16.5358	10.266	2449.087	0.6608	0.6395
1.412	2	14.55	0.4	99.01	0.0005	4704	17	18.04	496.1		1.412	2	14.6	10.22	0.0005	1408.101	1.6017	16.4891	10.2948	2255.357	0.6661	0.6398
1.422	2	15.55	0.54	94.08	0.0027	4663	17	18.04	493.7		1.422	2	15.6	10.234	0.0027	1512.786	1.6113	16.4241	10.1932	2437.523	0.6605	0.6431
1.432	2	16.55	0.5	94.51	0.0023	4658	18	18.04	495.8		1.432	2	16.6	10.23	0.0023	1502.644	1.6134	17.4099	10.7911	2424.299	0.6593	0.6402
1.442	2	17.55	0.59	94.16	0.0021	4678	19	18.04	495.5		1.442	2	17.6	10.239	0.0021	1511.738	1.6062	18.3305	11.4126	2428.114	0.6635	0.6405
1.452	2	18.55	0.72	94.42	0.0041	4787	19	18.04	494.9		1.452	2	18.6	10.252	0.0041	1507.869	1.5733	18.2636	11.6084	2372.34	0.6825	0.6414
1.462	2	19.55	0.81	101.09	0.0015	4676	19	18.05	494.4		1.462	2	19.6	10.261	0.0015	1374.364	1.6033	18.2174	11.3624	2203.523	0.6651	0.6421
1.472	2	20.55	0.85	108.92	0.0011	4688	20	18.05	495		1.472	2	20.6	10.265	0.0011	1244.393	1.5992	19.1547	11.9774	1990.087	0.6675	0.6413
1.482	2	21.55	0.91	104.71	0.0009	4678	21	18.05	494.7		1.482	2	21.6	10.271	0.0009	1312.085	1.6012	20.0786	12.54	2100.871	0.6664	0.6416
1.492	2	22.55	0.96	100.17	0.0021	4712	21	18.04	494.6		1.492	2	22.6	10.276	0.0021	1393.545	1.5907	20.0505	12.6048	2216.711	0.6724	0.6419
1.502	2	23.55	1.01	100.76	0.0061	4617	22	18.05	494		1.502	2	23.6	10.281	0.0061	1383.156	1.6172	20.9758	12.9703	2236.865	0.6571	0.6426
1.512	2	24.55	1	104.94	0.0033	4646	23	18.04	494.1		1.512	2	24.6	10.28	0.0033	1309.387	1.609	21.9354	13.6332	2106.762	0.6619	0.6425
1.522	2	25.55	0.97	105.44	0.0041	4594	24	18.04	493.4		1.522	2	25.6	10.277	0.0041	1300.721	1.6246	22.9084	14.1012	2113.106	0.6528	0.6436
1.532	2	26.55	1.01	110.1	0.0045	4685	24	18.04	496.3		1.532	2	26.6	10.281	0.0045	1228.756	1.5976	22.8827	14.3231	1963.074	0.6684	0.6394
1.542	2	27.55	0.99	110.2	0.0023	4668	25	18.04	499.2		1.542	2	27.6	10.279	0.0023	1227.05	1.6028	23.8495	14.88	1966.704	0.6654	0.6354
1.552	2	28.55	0.94	104.1	0.0023	4571	25	18.05	500		1.552	2	28.6	10.274	0.0023	1322.776	1.6318	23.883	14.636	2158.509	0.6486	0.6344
1.562	2	29.55	1.05	100.93	0.0021	4590	26	18.06	504		1.562	2	29.6	10.285	0.0021	1380.537	1.6245	24.7618	15.243	2242.645	0.6529	0.629
1.572	2	30.55	1.05	101.33	0.0037	4597	26	18.05	504.8		1.572	2	30.6	10.285	0.0037	1373.164	1.6224	24.7618	15.2622	2227.854	0.654	0.6279
1.582	2	31.55	1.1	105.93	0.0048	4630	25	18.05	502.1		1.582	2	31.6	10.29	0.0048	1294.34	1.612	23.7761	14.7492	2086.514	0.6601	0.6315
1.592	2	32.55	1.05	104.83	0.0059	4661	26	18.05	502		1.592	2	32.6	10.285	0.0059	1311.862	1.6039	24.7618	15.4388	2104.051	0.6648	0.6317
1.602	2	33.55	1.04	100.18	0.0099	4605	26	18.05	503		1.602	2	33.6	10.284	0.0099	1394.441	1.6202	24.7688	15.2871	2259.333	0.6553	0.6302
1.612	2	34.55	1.04	95.28	0.008	4668	26	18.05	503.3		1.612	2	34.6	10.284	0.008	1493.682	1.602	24.7688	15.461	2392.895	0.6659	0.63
1.622	2	35.55	1	95.51	0.0094	4682	26	18.05	499.2		1.622	2	35.6	10.28	0.0094	1488.13	1.5986	24.7965	15.5112	2378.959	0.6679	0.6354
1.632	2	36.55	1	95.6	0.0117	4710	26	18.06	490.1		1.632	2	36.6	10.28	0.0117	1486.193	1.5906	24.7965	15.589	2364.011	0.6725	0.6482
1.642	2	37.55	0.99	95.35	0.0119	4611	26	18.06	476.7		1.642	2	37.6	10.279	0.0119	1491.439	1.6193	24.8035	15.3176	2415.059	0.6559	0.6678
1.652	2	38.55	0.94	95.07	0.0127	4631	26	18.06	465.4		1.652	2	38.6	10.274	0.0127	1496.795	1.6143	24.8383	15.3869	2416.202	0.6588	0.6853
1.662	2	39.55	0.85	95.22	0.0222	4599	26	18.06	456.3		1.662	2	39.6	10.265	0.0222	1492.223	1.625	24.9011	15.3238	2424.86	0.6526	0.7
1.672	2	40.55	0.95	95.22	0.0171	4556	27	18.06	449.9		1.672	2	40.6	10.275	0.0171	1493.676	1.6361	25.7864	15.7611	2443.769	0.6461	0.7108
1.682	2	41.55	0.89	94.85	0.0113	4411	26	18.06	445.2		1.682	2	41.6	10.269	0.0113	1500.877	1.6809	24.8732	14.7975	2522.823	0.6201	0.719
1.692	2	42.55	0.87	94.8	0.0101	4518	26	18.06	441		1.692	2	42.6	10.267	0.0101	1501.682	1.6487	24.8872	15.0952	2475.786	0.6388	0.7263
1.702	2	43.55	0.81	95.1	0.0217	4563	25	18.06	440.1		1.702	2	43.6	10.261	0.0217	1494.248	1.6362	23.9703	14.6497	2444.94	0.646	0.7279
1.712	2	44.55	0.86	94.99	0.0107	5058	25	18.07	442.5		1.712	2	44.6	10.266	0.0107	1497.375	1.4983	23.9367	15.9757	2243.538	0.726	0.7237
1.722	2	45.55	0.88	95.45	0.0057	4697	25	18.06	446.8		1.722	2	45.6	10.268	0.0057	1487.685	1.5962	23.9232	14.9876	2374.653	0.6693	0.7161
1.732	2	46.55	0.78	94.85	0.015	4600	25	18.07	449.5		1.732	2	46.6	10.258	0.015	1499.269	1.6258	23.9905	14.756	2437.533	0.6521	0.7115
1.742	2	47.55	0.81	95.28	0.017	4598	24	18.07	452.8		1.742	2	47.6	10.261	0.017	1490.341	1.6259	23.0115	14.1529	2423.183	0.652	0.7059
1.752	2	48.55	0.81	95.39	0.0165	4565	25	18.06	453.1		1.752	2	48.6	10.261	0.0165	1487.964	1.6356	23.9703	14.655	2433.778	0.6464	0.7054
1.762	2	49.55	0.98	95.03	0.0136	4642	24	18.07	453.8		1.762	2	49.6	10.278	0.0136	1498.251	1.6104	22.902	14.221	2412.838	0.661	0.7042
1.772	2	50.55	1.02	94.98	0.0122	4602	25	18.06	455.3		1.772	2	50.6	10.282	0.0122	1499.927	1.6214	23.8295	14.6965	2432.034	0.6546	0.7017
1.782	2	51.55	1.04	95.18	0.01	4545	25	18.07	456.2		1.782	2	51.6	10.284	0.01	1495.854	1.6379	23.8161	14.5406	2450.068	0.6451	0.7003
1.792	2	52.55	1.01	95.14	0.0093	4551	24	18.07	456.1		1.792	2	52.6	10.281	0.0093	1496.289	1.6366	22.8827	13.9818	2448.831	0.6458	0.7004
1.802	2	53.55	1.1	95.18	0.0106	4575	24	18.07	455.4		1.802	2	53.6	10.29	0.0106	1496.727	1.6281	22.8251	14.0196	2436.803	0.6508	0.7015
1.812	2	54.55	1.21	95.06	0.011	4561	24	18.07	454.5		1.812	2	54.6	10.301	0.011	1500.947	1.6305	22.7549	13.956	2447.251	0.6494	0.7031
1.822	2	55.55	1.32	95.17	0.0203	4592	24	18.06	452		1.822	2	55.6	10.312	0.0203	1500.146	1.6196	22.685	14.0063	2429.688	0.6557	0.7072
1.832	2	56.55	1.47	95.47	0.0185	4588	24	18.07	450.9		1.832	2	56.6	10.327	0.0185	1495.799	1.6185	22.5902	13.9579	2420.877	0.6564	0.7092
1.842	2	57.55	1.67	95.46	0.0134	4585	24	18.07	450.2		1.842	2	57.6	10.347	0.0134	1498.914	1.6162	22.4647	13.8997	2422.54	0.6577	0.7103
1.852	2	58.55	1.66	95.56	0.0118	4595	24	18.07	450.7		1.852	2	58.6	10.346	0.0118	1496.601	1.6134	22.471	13.9274	2414.674	0.6593	0.7095
1.862	2	59.55	1.77	95.28	0.014	4511	24	18.08	450.3		1.862	2	59.6	10.357	0.014	1504.285	1.6364	22.4023	13.6897	2461.656	0.6459	0.7101
1.872	2	60.55	1.76	95.35	0.0354	4523	24	18.07	449.1		1.872	2	60.6	10.356	0.0354	1502.612	1.633	22.4085	13.7221	2453.799	0.6479	0.7122
1.882	2	61.55	1.71	95.36	0.0325	4637	24	18.07	448.5		1.882	2	61.6	10.351	0.0325	1501.668	1.6005	22.4397	14.0203	2403.444	0.6668	0.7133
1.892	2	62.55	1.71	95.31	0.0538	4601	24	18.08	444.4		1.892	2	62.6	10.351	0.0538	1502.758	1.6109	22.4397	13.9298	2420.819	0.6607	0.7202
1.902	2	63.55	1.64	95.23	0.0437	4596	24	18.08	441.3		1.902	2	63.6	10.344	0.0437	1503.488	1.6135	22.4835	13.9349	2425.819	0.6592	0.7257
1.912	2	64.55	1.62	95.2	0.053	4472	24	18.08	439.2		1.912	2	64.6	10.342	0.053	1503.854	1.6505	22.496	13.6299	2482.096	0.6378	0.7295
1.922	2	65.55	1.61	94.87	0.0456	4393	24	18.08	435.6		1.922	2	65.6	10.341	0.0456	1510.958	1.6747	22.5023	13.4363	2530.449	0.6237	0.736
1.932	2	66.55	1.56	94.56	0.037	4325	24	18.09	432.5		1.932	2	66.6	10.336	0.037	1517.1	1.6967	22.5336	13.2806	2574.104	0.6109	0.7417
1.942	2	67.55	1.46	94.27	0.0306	4335	23	18.08	432		1.942	2	67.6	10.326	0.0306	1522.111	1.6952	21.655	12.7741	2580.321	0.6118	0.7425
1.952	2	68.55	1.46	94.8	0.0294	4489	22	18.08	432.1		1.952	2	68.6	10.326	0.0294	1510.312	1.6479	20.7135	12.5694	2488.887	0.6393	0.7424
1.962	2	69.55	1.31	95.59	0.0216	4520	22	18.08	434.1		1.962	2	69.6	10.311	0.0216	1490.891	1.641	20.8004	12.6751	2446.617	0.6432	0.7387
1.972	2	70.55	1.24	95.44	0.0145	4581	21	18.09	435.4		1.972	2	70.6	10.304	0.0145	1493.117	1.6241	19.8938	12.249	2424.992	0.6531	0.7364
1.982	2	71.55	1.16	95.2	0.0138	4578	20	18.09	436.8		1.982	2	71.6	10.296	0.0138	1497.164	1.6263	18.989	11.6765	2434.774	0.6518	0.7339
1.992	2	72.55	1.16	95.12	0.0219	4568	20	18.09	438.2		1.992	2	72.6	10.296	0.0219	1498.908	1.6292	18.989	11.6554	2442.019	0.6501	0.7313
2.002	2	73.55	1.08	95.18	0.0392	4541	18	18.09	443.1		2.002	2	73.6	10.288	0.0392	1496.436	1.6385	17.1284	10.454	2451.845	0.6447	0.7226
2.012	2	74.55	1.05	95.27	0.032	4586	18	18.09	447.7		2.012	2	74.6	10.285	0.032	1494.044	1.6256	17.1428	10.5452	2428.787	0.6522	0.7146
2.022	2	75.55	1.01	95.23	0.026	4483	17	18.09	452.8		2.022	2	75.6	10.281	0.026	1494.331	1.657	16.2086	9.7821	2476.039	0.634	0.7059
2.032	2	76.55	0.98	95.2	0.0192	4552	16	18.09	457.5		2.032	2	76.6	10.278	0.0192	1494.547	1.6368	15.268	9.328	2446.251	0.6457	0.6981
2.042	2	77.55	0.93	95.02	0.0146	4534	17	18.09	463.2		2.042	2	77.6	10.273	0.0146	1497.74	1.6429	16.245	9.8878	2460.686	0.6422	0.6889
2.052	2	78.55	0.88	95.01	0.0249	4510	15	18.1	468.8		2.052	2	78.6	10.268	0.0249	1497.229	1.6509	14.3539	8.6945	2471.797	0.6375	0.68
2.062	2	79.55	0.78	95.15	0.0168	4533	15	18.09	474.7		2.062	2	79.6	10.258	0.0168	1492.724	1.6456	14.3943	8.747	2456.477	0.6406	0.6708
2.072	2	80.55	0.73	95.08	0.0259	4569	15	18.1	478.8		2.072	2	80.6	10.253	0.0259	1493.518	1.6357	14.4146	8.8123	2443	0.6463	0.6647
2.082	2	81.55	0.68	95.22	0.0271	4590	14	18.09	480.9		2.082	2	81.6	10.248	0.0271	1489.751	1.6303	13.4725	8.2636	2428.799	0.6495	0.6616
2.092	2	82.55	0.58	95.18	0.0244	4582	14	18.09	482.2		2.092	2	82.6	10.238	0.0244	1489.164	1.6343	13.5105	8.2669	2433.723	0.6472	0.6597
2.102	2	83.55	0.58	95.02	0.0195	4647	14	18.1	481.9		2.102	2	83.6	10.238	0.0195	1492.637	1.6153	13.5105	8.3642	2411.026	0.6582	0.66
2.112	2	84.55	0.53	94.89	0.0191	4586	13	18.11	480.4		2.112	2	84.6	10.233	0.0191	1494.741	1.6339	12.5632	7.689	2442.269	0.6474	0.6624
2.122	2	85.55	0.47	94.84	0.0279	4499	14	18.12	479.1		2.122	2	85.6	10.227	0.0279	1494.957	1.6609	13.5525	8.1599	2482.905	0.6318	0.6642
2.132	2	86.55	0.48	94.76	0.0326	4599	13	18.1	475.9		2.132	2	86.6	10.228	0.0326	1496.853	1.6309	12.5809	7.7142	2441.184	0.6491	0.6691
2.142	2	87.55	0.4	94.54	0.0475	4531	13	18.11	473.8		2.142	2	87.6	10.22	0.0475	1500.514	1.6524	12.6093	7.6311	2479.377	0.6367	0.6723
2.152	2	88.55	0.38	94.64	0.0525	4560	12	18.11	472.1		2.152	2	88.6	10.218	0.0525	1498.021	1.644	11.646	7.0839	2462.765	0.6415	0.6748
2.162	2	89.55	0.38	94.58	0.0523	4531	12	18.11	469.9		2.162	2	89.6	10.218	0.0523	1499.34	1.6527	11.646	7.0467	2477.922	0.6365	0.6783
2.172	2	90.55	0.39	94.44	0.0615	4525	11	18.12	469.9		2.172	2	90.6	10.219	0.0615	1502.573	1.6543	10.6724	6.4513	2485.729	0.6355	0.6782
2.182	2	91.55	0.44	94.5	0.0568	4501	11	18.12	471		2.182	2	91.6	10.224	0.0568	1501.983	1.6607	10.6574	6.4173	2494.398	0.6318	0.6765
2.192	2	92.55	0.42	94.61	0.058	4545	10	18.11	470.1		2.192	2	92.6	10.222	0.058	1499.267	1.6478	9.694	5.8829	2470.551	0.6393	0.6779
2.202	2	93.55	0.44	94.83	0.0369	4592	10	18.11	474.2		2.202	2	93.6	10.224	0.0369	1494.737	1.6336	9.6885	5.9309	2441.766	0.6476	0.6716
2.212	2	94.55	0.44	94.87	0.0495	4537	10	18.11	476.5		2.212	2	94.6	10.224	0.0495	1493.863	1.6499	9.6885	5.8722	2464.738	0.6381	0.6681
2.222	2	95.55	0.5	94.96	0.0347	4601	10	18.12	477.4		2.222	2	95.6	10.23	0.0347	1492.777	1.63	9.6722	5.9339	2433.182	0.6497	0.6668
2.232	2	96.55	0.55	94.82	0.0387	4560	9	18.12	479.9		2.232	2	96.6	10.235	0.0387	1496.564	1.6413	8.6927	5.2963	2456.284	0.6431	0.663
2.242	2	97.55	0.65	94.91	0.0601	4580	9	18.12	479.8		2.242	2	97.6	10.245	0.0601	1496.057	1.6338	8.6682	5.3057	2444.202	0.6475	0.6632
2.252	2	98.55	0.7	95.05	0.0484	4607	9	18.12	478.6		2.252	2	98.6	10.25	0.0484	1493.734	1.625	8.656	5.3267	2427.365	0.6525	0.6651
2.262	2	99.55	0.8	95.02	0.043	4601	8	18.12	477.3		2.262	2	99.6	10.26	0.043	1495.845	1.6252	7.6727	4.721	2431.054	0.6524	0.667
2.272	2	100.55	0.79	94.95	0.0397	4574	9	18.12	477.5		2.272	2	100.6	10.259	0.0397	1497.227	1.6333	8.6342	5.2863	2445.425	0.6477	0.6666
2.282	2	101.55	0.85	94.91	0.0483	4592	9	18.12	475		2.282	2	101.6	10.265	0.0483	1498.978	1.6271	8.6196	5.2977	2438.914	0.6514	0.6704
2.292	2	102.55	0.84	95.05	0.0426	4607	9	18.12	474.5		2.292	2	102.6	10.264	0.0426	1495.774	1.6228	8.622	5.313	2427.365	0.6538	0.6711
2.302	2	103.55	0.87	95.06	0.0485	4530	8	18.12	473.4		2.302	2	103.6	10.267	0.0485	1495.993	1.6451	7.6576	4.6548	2461.038	0.6409	0.6729
2.312	2	104.55	0.94	95.12	0.0344	4605	8	18.12	472.5		2.312	2	104.6	10.274	0.0344	1495.705	1.6218	7.6426	4.7123	2425.765	0.6544	0.6743
2.322	2	105.55	0.94	94.91	0.0673	4653	8	18.12	471.6		2.322	2	105.6	10.274	0.0673	1500.292	1.6079	7.6426	4.7532	2412.3	0.6625	0.6756
2.332	2	106.55	0.93	94.82	0.0801	4537	8	18.12	471.4		2.332	2	106.6	10.273	0.0801	1502.12	1.642	7.6447	4.6556	2466.54	0.6427	0.6759
2.342	2	107.55	0.92	94.88	0.0982	4553	9	18.13	470.8		2.342	2	107.6	10.272	0.0982	1500.657	1.6374	8.6027	5.2537	2457.242	0.6453	0.6769
2.352	2	108.55	0.84	95.14	0.0502	4590	9	18.12	471.9		2.352	2	108.6	10.264	0.0502	1493.815	1.6278	8.622	5.2968	2431.627	0.6509	0.6752
2.362	2	109.55	0.89	94.89	0.0641	4606	10	18.13	470.8		2.362	2	109.6	10.269	0.0641	1500	1.6223	9.5666	5.8969	2433.477	0.6541	0.6768
2.372	2	110.55	0.85	95.15	0.0452	4587	9	18.13	470.8		2.372	2	110.6	10.265	0.0452	1493.743	1.6285	8.6196	5.2929	2432.589	0.6505	0.6768
2.382	2	111.55	0.79	94.85	0.0443	4536	10	18.14	470.7		2.382	2	111.6	10.259	0.0443	1499.415	1.6446	9.5935	5.8334	2465.906	0.6412	0.677
2.392	2	112.55	0.67	94.55	0.0502	4491	10	18.14	471.8		2.392	2	112.6	10.247	0.0502	1504.257	1.66	9.6259	5.7987	2497.111	0.6322	0.6754
2.402	2	113.55	0.76	94.35	0.0655	4524	10	18.14	472.3		2.402	2	113.6	10.256	0.0655	1510.012	1.6486	9.6016	5.8239	2489.475	0.6388	0.6746
2.412	2	114.55	0.76	94.5	0.0475	4519	11	18.14	472.5		2.412	2	114.6	10.256	0.0475	1506.684	1.6501	10.5618	6.4005	2486.246	0.638	0.6742
2.422	2	115.55	0.7	94.61	0.0723	4598	11	18.15	471.8		2.422	2	115.6	10.25	0.0723	1503.373	1.6277	10.5796	6.4998	2446.996	0.651	0.6753
2.432	2	116.55	0.65	94.91	0.0545	4510	11	18.15	470.8		2.432	2	116.6	10.245	0.0545	1496.057	1.6546	10.5945	6.403	2475.407	0.6354	0.6768
2.442	2	117.55	0.61	94.61	0.0454	4562	11	18.15	471.5		2.442	2	117.6	10.241	0.0454	1502.053	1.6397	10.6064	6.4684	2462.958	0.644	0.6758
2.452	2	118.55	0.55	94.85	0.0394	4594	11	18.15	473.5		2.452	2	118.6	10.235	0.0394	1495.908	1.6312	10.6244	6.5131	2440.172	0.6489	0.6727
2.462	2	119.55	0.56	94.81	0.0398	4650	11	18.15	474.4		2.462	2	119.6	10.236	0.0398	1496.929	1.6147	10.6214	6.5778	2417.128	0.6585	0.6714
2.472	2	120.55	0.6	94.9	0.0283	4579	11	18.15	476		2.472	2	120.6	10.24	0.0283	1495.545	1.6349	10.6094	6.4895	2445	0.6468	0.669
2.482	2	121.55	0.6	94.87	0.0289	4581	12	18.16	476.6		2.482	2	121.6	10.24	0.0289	1496.201	1.6343	11.5739	7.082	2445.188	0.6472	0.668
2.492	2	122.55	0.67	94.88	0.0295	4554	12	18.15	478.7		2.492	2	122.6	10.247	0.0295	1497.005	1.6411	11.5511	7.0385	2456.797	0.6432	0.6649
2.502	2	123.55	0.7	94.91	0.0277	4508	12	18.15	477		2.502	2	123.6	10.25	0.0277	1496.787	1.6544	11.5414	6.9761	2476.308	0.6355	0.6674
2.512	2	124.55	0.75	94.89	0.0194	4562	12	18.15	476.1		2.512	2	124.6	10.255	0.0194	1497.955	1.6375	11.5252	7.0383	2452.884	0.6453	0.6687
2.522	2	125.55	0.85	94.89	0.0262	4569	13	18.15	473.8		2.522	2	125.6	10.265	0.0262	1499.416	1.6338	12.4506	7.6205	2449.781	0.6474	0.6722
2.532	2	126.55	0.87	95.02	0.0196	4530	13	18.16	474.3		2.532	2	126.6	10.267	0.0196	1496.866	1.6451	12.4436	7.5641	2462.473	0.6409	0.6715
2.542	2	127.55	0.95	94.97	0.0249	4578	13	18.15	475		2.542	2	127.6	10.275	0.0249	1499.125	1.6296	12.4157	7.6189	2442.944	0.6499	0.6705
2.552	2	128.55	0.99	94.89	0.0207	4529	14	18.16	469.8		2.552	2	128.6	10.279	0.0207	1501.461	1.6435	13.3557	8.1266	2467.597	0.6418	0.6784
2.562	2	129.55	1.05	94.93	0.0267	4550	13	18.16	468.1		2.562	2	129.6	10.285	0.0267	1501.46	1.6363	12.3809	7.5666	2456.783	0.646	0.681
2.572	2	130.55	1.18	95.06	0.0173	4447	13	18.16	454.6		2.572	2	130.6	10.298	0.0173	1500.51	1.6651	12.3359	7.4084	2498.552	0.6293	0.7029
2.582	2	131.55	1.27	94.95	0.0157	4478	13	18.15	439.8		2.582	2	131.6	10.307	0.0157	1504.232	1.6543	12.3049	7.4382	2488.426	0.6356	0.7284
2.592	2	132.55	1.37	95.12	0.0103	4452	13	18.16	436.6		2.592	2	132.6	10.317	0.0103	1501.965	1.6605	12.2706	7.3895	2494.086	0.6319	0.7342
2.602	2	133.55	1.51	95.03	0.0116	4393	14	18.16	436.3		2.602	2	133.6	10.331	0.0116	1505.977	1.6764	13.1629	7.8521	2524.547	0.6228	0.7346
2.612	2	134.55	1.57	94.88	0.0265	4420	14	18.16	435.2		2.612	2	134.6	10.337	0.0265	1510.153	1.6671	13.141	7.8826	2517.552	0.6281	0.7368
2.622	2	135.55	1.72	95.03	0.024	4433	13	18.16	434.6		2.622	2	135.6	10.352	0.024	1509.038	1.6607	12.1515	7.3171	2506.064	0.6318	0.7378
2.632	2	136.55	1.76	95.05	0.0242	4425	13	18.17	438.1		2.632	2	136.6	10.356	0.0242	1509.181	1.6625	12.138	7.301	2509.011	0.6308	0.7315
2.642	2	137.55	1.81	95.12	0.023	4460	13	18.17	436.1		2.642	2	137.6	10.361	0.023	1508.371	1.6511	12.1211	7.3413	2490.44	0.6374	0.735
2.652	2	138.55	1.92	95.04	0.0334	4420	13	18.17	437.2		2.652	2	138.6	10.372	0.0334	1511.733	1.6615	12.0841	7.2732	2511.681	0.6314	0.7332
2.662	2	139.55	2.18	95.52	0.0157	4457	13	18.17	437		2.662	2	139.6	10.398	0.0157	1504.994	1.6461	11.9974	7.2883	2477.38	0.6403	0.7334
2.672	2	140.55	2.35	95.62	0.0111	4438	12	18.17	438.6		2.672	2	140.6	10.415	0.0111	1505.275	1.6491	11.0226	6.6838	2482.418	0.6385	0.7305
2.682	2	141.55	2.49	95.44	0.0069	4412	13	18.17	437		2.682	2	141.6	10.429	0.0069	1511.23	1.6548	11.8951	7.1882	2500.794	0.6353	0.7335
2.692	2	142.55	4.22	95.54	0.0009	4371	13	18.17	432.3		2.692	2	142.6	10.602	0.0009	1534.076	1.6401	11.3461	6.9178	2516.099	0.6438	0.742
2.702	2	143.55	4.31	96.35	0.0012	4352	12	18.17	422.7		2.702	2	143.6	10.611	0.0012	1517.592	1.6445	10.4479	6.3532	2495.695	0.6412	0.7601
2.712	2	144.55	4.16	97.96	0.0001	4355	12	18.18	406.9		2.712	2	144.6	10.596	0.0001	1481.337	1.6459	10.4903	6.3735	2438.169	0.6404	0.7921
2.722	2	145.55	4.17	98.76	0.0001	4332	12	18.18	383.7		2.722	2	145.6	10.597	0.0001	1465.091	1.6528	10.4875	6.3453	2421.489	0.6364	0.8438
2.732	2	146.55	4.01	999	0	4345	12	18.18	345.3		2.732	2	146.6	10.581	0	108.7942	1.6513	10.533	6.3786	179.653	0.6373	0.9452
2.742	2	147.55	3.88	999	0	4413	12	18.19	293.6		2.742	2	147.6	10.568	0	108.6606	1.6327	10.5703	6.4739	177.4146	0.6481	1.1257
2.752	2	148.55	3.98	999	0	4448	11	18.18	237.9		2.752	2	148.6	10.578	0	108.7634	1.6208	9.6631	5.9621	176.2796	0.655	1.4122
2.762	2	149.55	5	120.63	0.0001	4515	10	18.19	195.8		2.762	2	149.6	10.68	0.0001	1133.758	1.5858	8.5463	5.3893	1797.896	0.6753	1.7422
2.772	2	150.55	6.79	999	0	11425	10	18.18	179.1		2.772	2	150.6	10.859	0	111.6526	0.494	8.1495	16.4968	55.1571	1.3086	1.9179
2.782	3	0.59	6.58	999	0	7024	11	18.19	186.5		2.782	3	0.6	10.838	0	111.4367	1.0269	9.0142	8.7784	114.4301	0.9995	1.8359
2.792	3	1.59	6.75	999	0	4346	11	18.19	222.2		2.792	3	1.6	10.855	0	111.6115	1.6093	8.9739	5.5762	179.6198	0.6616	1.52
2.802	3	2.59	6.49	999	0	4350	11	18.19	276.3		2.802	3	2.6	10.829	0	111.3442	1.612	9.0356	5.6052	179.4869	0.6601	1.2019
2.812	3	3.59	6.23	100.1	0.0001	4401	11	18.18	334.2		2.812	3	3.6	10.803	0.0001	1466.404	1.6008	9.0979	5.6835	2347.348	0.6666	0.9791
2.822	3	4.59	5.46	999	0	4397	12	18.19	382.4		2.822	3	4.6	10.726	0	110.2851	1.6134	10.1301	6.2786	177.9373	0.6593	0.8469
2.832	3	5.59	1.85	95.18	0.0064	4368	12	18.19	416.5		2.832	3	5.6	10.365	0.0064	1507.636	1.6786	11.1763	6.6582	2530.675	0.6215	0.7724
2.842	3	6.59	1.23	94.7	0.0037	4482	12	18.19	437.4		2.842	3	6.6	10.303	0.0037	1509.155	1.6537	11.3711	6.8761	2495.716	0.6359	0.7327
2.852	3	7.59	0.61	94.55	0.0097	4479	12	18.19	450.4		2.852	3	7.6	10.241	0.0097	1503.376	1.6646	11.5707	6.9508	2502.581	0.6296	0.71
2.862	3	8.59	0.34	94.12	0.0125	4463	11	18.19	457		2.862	3	8.6	10.214	0.0125	1508.938	1.6739	10.6875	6.3847	2525.847	0.6242	0.6989
2.872	3	9.59	0.3	94.02	0.0242	4414	12	18.19	462.3		2.872	3	9.6	10.21	0.0242	1510.579	1.6897	11.6723	6.908	2552.396	0.615	0.6903
2.882	3	10.59	0.34	94.29	0.0519	4434	11	18.19	465		2.882	3	10.6	10.214	0.0519	1505.158	1.6828	10.6875	6.3509	2532.927	0.619	0.686
2.892	3	11.59	0.33	94.47	0.0424	4509	11	18.19	467		2.892	3	11.6	10.213	0.0424	1501.029	1.6601	10.6905	6.4397	2491.868	0.6322	0.6827
2.902	3	12.59	0.4	94.52	0.0364	4496	11	18.19	470.8		2.902	3	12.6	10.22	0.0364	1500.955	1.6629	10.6694	6.4162	2495.937	0.6306	0.6769
2.912	3	13.59	0.45	94.53	0.0474	4533	11	18.19	472.3		2.912	3	13.6	10.225	0.0474	1501.468	1.6509	10.6544	6.4535	2478.842	0.6375	0.6746
2.922	3	14.59	0.5	94.56	0.0626	4506	10	18.2	475.3		2.922	3	14.6	10.23	0.0626	1501.541	1.6583	9.6722	5.8327	2489.935	0.6333	0.6699
2.932	3	15.59	0.59	94.62	0.0507	4464	11	18.2	479.8		2.932	3	15.6	10.239	0.0507	1501.54	1.6695	10.6124	6.3565	2506.868	0.6267	0.6633
2.942	3	16.59	0.66	94.6	0.0487	4479	10	18.2	482.6		2.942	3	16.6	10.246	0.0487	1503.007	1.6638	9.6287	5.7871	2500.745	0.63	0.659
2.952	3	17.59	0.75	94.64	0.0447	4463	11	18.2	487		2.952	3	17.6	10.255	0.0447	1503.445	1.6672	10.5647	6.3367	2506.591	0.6281	0.6526
2.962	3	18.59	0.85	94.57	0.0462	4405	11	18.2	489.5		2.962	3	18.6	10.265	0.0462	1506.457	1.6834	10.5351	6.2582	2535.985	0.6187	0.649
2.972	3	19.59	0.9	94.46	0.0454	4506	10	18.2	492.8		2.972	3	19.6	10.27	0.0454	1509.628	1.6518	9.5639	5.79	2493.595	0.637	0.6443
2.982	3	20.59	1.01	94.81	0.0847	4566	9	18.2	495.1		2.982	3	20.6	10.281	0.0847	1503.51	1.6322	8.581	5.2574	2453.978	0.6484	0.6411
2.992	3	21.59	1	94.92	0.0509	4539	10	18.2	495.9		2.992	3	21.6	10.28	0.0509	1500.949	1.6403	9.5371	5.8142	2462.045	0.6437	0.64
3.002	3	22.59	0.95	95.02	0.0464	4525	9	18.2	498.4		3.002	3	22.6	10.275	0.0464	1498.032	1.6453	8.5955	5.2243	2464.709	0.6408	0.6365
3.012	3	23.59	1.01	94.91	0.0496	4495	9	18.21	497.4		3.012	3	23.6	10.281	0.0496	1501.314	1.6533	8.581	5.1901	2482.174	0.6361	0.6379
3.022	3	24.59	1.01	95.03	0.0511	4500	9	18.2	498		3.022	3	24.6	10.281	0.0511	1498.688	1.6518	8.581	5.1949	2475.577	0.637	0.6371
3.032	3	25.59	1	94.99	0.0421	4569	9	18.21	501		3.032	3	25.6	10.28	0.0421	1499.417	1.6314	8.5834	5.2613	2446.208	0.6488	0.633
3.042	3	26.59	1.06	95.03	0.0481	4478	9	18.2	503.1		3.042	3	26.6	10.286	0.0481	1499.417	1.6577	8.569	5.1693	2485.523	0.6336	0.6302
3.052	3	27.59	1.01	95	0.049	4536	9	18.21	505.3		3.052	3	27.6	10.281	0.049	1499.344	1.6411	8.581	5.2289	2460.511	0.6432	0.6272
3.062	3	28.59	0.95	94.98	0.0497	4524	8	18.21	506.5		3.062	3	28.6	10.275	0.0497	1498.906	1.6456	7.6404	4.6429	2466.595	0.6406	0.6257
3.072	3	29.59	0.95	95.27	0.0443	4505	8	18.21	507.5		3.072	3	29.6	10.275	0.0443	1492.592	1.6513	7.6404	4.6269	2464.703	0.6373	0.6242
3.082	3	30.59	0.96	95.27	0.0404	4557	7	18.21	507.8		3.082	3	30.6	10.276	0.0404	1492.737	1.6356	6.6835	4.0862	2441.552	0.6464	0.6239
3.092	3	31.59	1	95.25	0.0333	4502	8	18.2	505.6		3.092	3	31.6	10.28	0.0333	1493.752	1.6514	7.6297	4.6202	2466.765	0.6372	0.6268
3.102	3	32.59	0.95	95.25	0.0337	4582	8	18.21	505.3		3.102	3	32.6	10.275	0.0337	1493.025	1.6284	7.6404	4.692	2431.248	0.6506	0.6272
3.112	3	33.59	0.9	95.26	0.0262	4494	8	18.21	505		3.112	3	33.6	10.27	0.0262	1492.082	1.6554	7.6511	4.6219	2470.002	0.6349	0.6276
3.122	3	34.59	0.91	95.24	0.0333	4566	7	18.21	503.6		3.122	3	34.6	10.271	0.0333	1492.661	1.6338	6.6929	4.0966	2438.643	0.6475	0.6295
3.132	3	35.59	0.9	95.31	0.0216	4497	7	18.21	501.3		3.132	3	35.6	10.27	0.0216	1490.999	1.6545	6.6947	4.0464	2466.861	0.6354	0.6326
3.142	3	36.59	0.91	95.21	0.0228	4562	8	18.2	493.6		3.142	3	36.6	10.271	0.0228	1493.312	1.6349	7.649	4.6785	2441.472	0.6468	0.6433
3.152	3	37.59	0.94	95.14	0.0187	4541	7	18.21	482.2		3.152	3	37.6	10.274	0.0187	1495.27	1.6407	6.6872	4.0759	2453.272	0.6435	0.6597
3.162	3	38.59	0.91	95.11	0.0202	4580	7	18.21	470.4		3.162	3	38.6	10.271	0.0202	1495.486	1.6296	6.6929	4.107	2437.084	0.6499	0.6774
3.172	3	39.59	0.86	95.24	0.0147	4603	8	18.22	463.7		3.172	3	39.6	10.266	0.0147	1491.934	1.6237	7.6597	4.7175	2422.408	0.6533	0.688
3.182	3	40.59	0.87	95.22	0.0165	4564	8	18.22	460.4		3.182	3	40.6	10.267	0.0165	1492.513	1.635	7.6576	4.6836	2440.234	0.6468	0.6933
3.192	3	41.59	0.9	95.22	0.0224	4586	8	18.22	456.2		3.192	3	41.6	10.27	0.0224	1492.949	1.628	7.6511	4.6997	2430.552	0.6508	0.7002
3.202	3	42.59	0.86	95.23	0.0174	4583	7	18.22	455.2		3.202	3	42.6	10.266	0.0174	1492.151	1.6295	6.7023	4.113	2431.516	0.6499	0.7019
3.212	3	43.59	0.87	95.02	0.0185	4604	8	18.22	454.7		3.212	3	43.6	10.267	0.0185	1496.866	1.6232	7.6576	4.7175	2429.74	0.6536	0.7027
3.222	3	44.59	0.82	95.32	0.0199	4618	8	18.22	451.8		3.222	3	44.6	10.262	0.0199	1489.621	1.6199	7.6683	4.7338	2413.068	0.6555	0.7076
3.232	3	45.59	0.82	95.35	0.0172	4559	7	18.22	450.8		3.232	3	45.6	10.262	0.0172	1488.973	1.6373	6.7098	4.0982	2437.836	0.6454	0.7092
3.242	3	46.59	0.81	95.21	0.0178	4609	7	18.22	448.3		3.242	3	46.6	10.261	0.0178	1491.858	1.6227	6.7117	4.1361	2420.846	0.6539	0.7135
3.252	3	47.59	0.81	95.26	0.0152	4532	8	18.22	445.7		3.252	3	47.6	10.261	0.0152	1490.774	1.6455	7.6705	4.6616	2452.996	0.6407	0.7181
3.262	3	48.59	0.87	95.09	0.0164	4579	8	18.23	444.7		3.262	3	48.6	10.267	0.0164	1495.339	1.6306	7.6576	4.6963	2438.235	0.6493	0.7198
3.272	3	49.59	0.82	95.08	0.0201	4602	8	18.23	443.8		3.272	3	49.6	10.262	0.0201	1494.829	1.6246	7.6683	4.7202	2428.491	0.6528	0.7213
3.282	3	50.59	0.91	95.2	0.021	4522	8	18.22	444		3.282	3	50.6	10.271	0.021	1493.529	1.6468	7.649	4.6447	2459.598	0.6399	0.721
3.292	3	51.59	0.86	95.24	0.0204	4543	8	18.22	445.1		3.292	3	51.6	10.266	0.0204	1491.934	1.6414	7.6597	4.6667	2448.819	0.6431	0.7191
3.302	3	52.59	0.91	95.27	0.0207	4549	9	18.23	444.7		3.302	3	52.6	10.271	0.0207	1492.01	1.6388	8.6051	5.2509	2445.092	0.6446	0.7197
3.312	3	53.59	0.86	95.29	0.0192	4520	9	18.23	446.8		3.312	3	53.6	10.266	0.0192	1490.851	1.6482	8.6172	5.2281	2457.276	0.6391	0.7161
3.322	3	54.59	1	95.3	0.0197	4576	9	18.22	449.2		3.322	3	54.6	10.28	0.0197	1492.667	1.6294	8.5834	5.2679	2432.117	0.65	0.7121
3.332	3	55.59	1.15	95.36	0.0205	4526	9	18.23	450.6		3.332	3	55.6	10.295	0.0205	1493.544	1.6418	8.5474	5.2061	2452.107	0.6428	0.7097
3.342	3	56.59	1.26	95.4	0.0175	4543	9	18.22	452.6		3.342	3	56.6	10.306	0.0175	1494.273	1.635	8.5212	5.2117	2443.138	0.6468	0.7062
3.352	3	57.59	1.37	95.34	0.0178	4528	10	18.23	452.2		3.352	3	57.6	10.317	0.0178	1497.17	1.6377	9.4389	5.7635	2451.928	0.6452	0.707
3.362	3	58.59	1.36	95.3	0.0235	4565	9	18.23	452.3		3.362	3	58.6	10.316	0.0235	1497.895	1.6269	8.4974	5.223	2436.958	0.6514	0.7068
3.372	3	59.59	1.56	95.26	0.0232	4533	10	18.24	449.5		3.372	3	59.6	10.336	0.0232	1501.671	1.6332	9.389	5.7488	2452.551	0.6478	0.7114
3.382	3	60.59	1.49	95.25	0.0253	4496	9	18.24	449.4		3.382	3	60.6	10.329	0.0253	1500.872	1.6454	8.4666	5.1458	2469.462	0.6407	0.7116
3.392	3	61.59	1.4	95.27	0.0195	4573	9	18.23	448.7		3.392	3	61.6	10.32	0.0195	1499.128	1.6239	8.4879	5.2267	2434.497	0.6532	0.7128
3.402	3	62.59	1.3	95.22	0.0265	4508	9	18.24	447.8		3.402	3	62.6	10.31	0.0265	1498.764	1.6448	8.5116	5.1749	2465.148	0.6411	0.7145
3.412	3	63.59	1.26	95.04	0.0302	4441	10	18.24	443.2		3.412	3	63.6	10.306	0.0302	1502.113	1.6657	9.468	5.6842	2502.028	0.629	0.7223
3.422	3	64.59	1.16	95.14	0.0206	4484	10	18.24	441		3.422	3	64.6	10.296	0.0206	1498.472	1.6542	9.4945	5.7395	2478.83	0.6356	0.7262
3.432	3	65.59	1.1	94.97	0.0276	4530	10	18.24	439.5		3.432	3	65.6	10.29	0.0276	1501.313	1.6414	9.5104	5.7941	2464.27	0.643	0.7289
3.442	3	66.59	1.03	95.25	0.0181	4475	10	18.25	440.6		3.442	3	66.6	10.283	0.0181	1494.188	1.6591	9.5291	5.7437	2478.935	0.6328	0.727
3.452	3	67.59	1.03	95.24	0.0133	4457	11	18.25	438.8		3.452	3	67.6	10.283	0.0133	1494.405	1.6645	10.482	6.2973	2487.461	0.6296	0.7303
3.462	3	68.59	0.98	95.35	0.0115	4472	11	18.25	439		3.462	3	68.6	10.278	0.0115	1491.294	1.6608	10.4967	6.3204	2476.694	0.6318	0.7298
3.472	3	69.59	0.88	95.33	0.0125	4550	12	18.25	439.5		3.472	3	69.6	10.268	0.0125	1490.276	1.639	11.4832	7.0063	2442.52	0.6444	0.729
3.482	3	70.59	0.88	95.32	0.0124	4443	12	18.25	439.7		3.482	3	70.6	10.268	0.0124	1490.492	1.6712	11.4832	6.8711	2490.946	0.6257	0.7286
3.492	3	71.59	0.78	95.24	0.0128	4472	13	18.24	441.5		3.492	3	71.6	10.258	0.0128	1490.772	1.664	12.4751	7.497	2480.653	0.6299	0.7254
3.502	3	72.59	0.78	95.25	0.0135	4483	13	18.24	441.7		3.502	3	72.6	10.258	0.0135	1490.555	1.6607	12.4751	7.5121	2475.319	0.6319	0.725
3.512	3	73.59	0.7	95.22	0.0145	4528	13	18.25	443.7		3.512	3	73.6	10.25	0.0145	1490.042	1.6484	12.5032	7.585	2456.205	0.639	0.7216
3.522	3	74.59	0.63	95.01	0.0149	4501	13	18.25	446.3		3.522	3	74.6	10.243	0.0149	1493.584	1.6577	12.5278	7.5576	2475.848	0.6336	0.717
3.532	3	75.59	0.63	95.18	0.014	4531	13	18.25	447.7		3.532	3	75.6	10.243	0.014	1489.891	1.6486	12.5278	7.5989	2456.296	0.6388	0.7145
3.542	3	76.59	0.58	95.23	0.0134	4508	13	18.25	450.2		3.542	3	76.6	10.238	0.0134	1488.081	1.6564	12.5455	7.5742	2464.79	0.6344	0.7103
3.552	3	77.59	0.58	95.17	0.0128	4511	14	18.25	452.2		3.552	3	77.6	10.238	0.0128	1489.38	1.6555	13.5105	8.1612	2465.596	0.6349	0.707
3.562	3	78.59	0.52	95.03	0.0131	4468	15	18.25	454.4		3.562	3	78.6	10.232	0.0131	1491.545	1.6695	14.5001	8.6855	2490.065	0.6268	0.7032
3.572	3	79.59	0.42	95.01	0.0119	4470	15	18.25	455.7		3.572	3	79.6	10.222	0.0119	1490.522	1.6705	14.541	8.7047	2489.882	0.6262	0.7011
3.582	3	80.59	0.38	94.98	0.0129	4382	15	18.25	453.8		3.582	3	80.6	10.218	0.0129	1490.591	1.6983	14.5574	8.5716	2531.513	0.61	0.7042
3.592	3	81.59	0.32	94.95	0.0115	4380	15	18.25	454		3.592	3	81.6	10.212	0.0115	1490.368	1.7	14.5821	8.578	2533.555	0.6091	0.7039
3.602	3	82.59	0.28	94.92	0.011	4404	15	18.25	457.1		3.602	3	82.6	10.208	0.011	1490.437	1.6931	14.5986	8.6223	2523.489	0.613	0.6988
3.612	3	83.59	0.28	94.88	0.0129	4428	15	18.25	457.8		3.612	3	83.6	10.208	0.0129	1491.308	1.6857	14.5986	8.6604	2513.859	0.6174	0.6977
3.622	3	84.59	0.23	94.89	0.0137	4471	14	18.25	459.7		3.622	3	84.6	10.203	0.0137	1490.359	1.6733	13.6447	8.1544	2493.791	0.6245	0.6944
3.632	3	85.59	0.18	94.88	0.0139	4444	14	18.25	460.4		3.632	3	85.6	10.198	0.0139	1489.847	1.6824	13.664	8.1218	2506.499	0.6193	0.6933
3.642	3	86.59	0.22	94.88	0.0139	4457	15	18.26	463.8		3.642	3	86.6	10.202	0.0139	1490.431	1.6777	14.6234	8.7162	2500.544	0.622	0.6879
3.652	3	87.59	0.2	94.87	0.013	4484	15	18.26	462.1		3.652	3	87.6	10.2	0.013	1490.356	1.6698	14.6317	8.7625	2488.609	0.6266	0.6906
3.662	3	88.59	0.24	94.84	0.0131	4470	15	18.26	460.8		3.662	3	88.6	10.204	0.0131	1491.595	1.6734	14.6151	8.7337	2496.069	0.6245	0.6927
3.672	3	89.59	0.29	94.85	0.0131	4480	15	18.26	459.5		3.672	3	89.6	10.209	0.0131	1492.108	1.6696	14.5945	8.7416	2491.153	0.6267	0.6948
3.682	3	90.59	0.25	94.84	0.0123	4468	14	18.26	464.5		3.682	3	90.6	10.205	0.0123	1491.741	1.6739	13.6369	8.147	2496.981	0.6242	0.6868
3.692	3	91.59	0.24	94.82	0.0121	4384	15	18.26	463.9		3.692	3	91.6	10.204	0.0121	1492.031	1.7	14.6151	8.597	2536.5	0.609	0.6877
3.702	3	92.59	0.31	94.59	0.0098	4464	14	18.26	465.2		3.702	3	92.6	10.211	0.0098	1498.093	1.6741	13.6138	8.132	2507.972	0.6241	0.6856
3.712	3	93.59	0.3	94.67	0.0127	4531	14	18.26	464.7		3.712	3	93.6	10.21	0.0127	1496.19	1.654	13.6177	8.2333	2474.654	0.6357	0.6865
3.722	3	94.59	0.31	95.2	0.0124	4490	14	18.26	463.8		3.722	3	94.6	10.211	0.0124	1484.804	1.6662	13.6138	8.1707	2473.96	0.6287	0.6879
3.732	3	95.59	0.32	95.01	0.0104	4482	14	18.26	464.5		3.732	3	95.6	10.212	0.0104	1489.064	1.6685	13.61	8.1572	2484.435	0.6273	0.6867
3.742	3	96.59	0.41	94.8	0.0114	4446	14	18.27	465.6		3.742	3	96.6	10.221	0.0114	1494.954	1.678	13.5754	8.0903	2508.513	0.6218	0.685
3.752	3	97.59	0.39	94.65	0.0125	4487	14	18.27	464.8		3.752	3	97.6	10.219	0.0125	1497.948	1.6658	13.5831	8.1541	2495.269	0.6289	0.6863
3.762	3	98.59	0.42	94.61	0.0152	4487	14	18.26	466.1		3.762	3	98.6	10.222	0.0152	1499.267	1.6653	13.5716	8.1496	2496.733	0.6292	0.6843
3.772	3	99.59	0.41	94.57	0.0127	4484	14	18.27	465.8		3.772	3	99.6	10.221	0.0127	1500	1.6664	13.5754	8.1467	2499.566	0.6286	0.6847
3.782	3	100.59	0.45	94.58	0.0146	4492	13	18.27	466		3.782	3	100.6	10.225	0.0146	1500.367	1.6633	12.5916	7.5702	2495.557	0.6303	0.6844
3.792	3	101.59	0.44	94.6	0.0178	4450	13	18.27	465.4		3.792	3	101.6	10.224	0.0178	1499.78	1.6763	12.5951	7.5138	2514.031	0.6228	0.6854
3.802	3	102.59	0.41	94.83	0.0104	4471	13	18.26	464.2		3.802	3	102.6	10.221	0.0104	1494.298	1.6703	12.6058	7.5469	2495.978	0.6263	0.6873
3.812	3	103.59	0.45	94.78	0.0102	4486	12	18.27	464.6		3.812	3	103.6	10.225	0.0102	1495.977	1.6651	11.623	6.9803	2490.978	0.6293	0.6865
3.822	3	104.59	0.44	94.67	0.0098	4471	13	18.27	462.9		3.822	3	104.6	10.224	0.0098	1498.242	1.6698	12.5951	7.5427	2501.831	0.6265	0.6893
3.832	3	105.59	0.49	94.58	0.0109	4485	12	18.27	461.9		3.832	3	105.6	10.229	0.0109	1500.954	1.6648	11.6099	6.9739	2498.743	0.6295	0.691
3.842	3	106.59	0.45	94.56	0.0126	4448	12	18.27	461.1		3.842	3	106.6	10.225	0.0126	1500.807	1.6767	11.623	6.932	2516.428	0.6226	0.6922
3.852	3	107.59	0.44	94.56	0.0143	4531	13	18.28	459.9		3.852	3	107.6	10.224	0.0143	1500.661	1.6517	12.5951	7.6255	2478.649	0.6371	0.6942
3.862	3	108.59	0.49	94.85	0.0101	4457	12	18.29	458.5		3.862	3	108.6	10.229	0.0101	1495.031	1.6733	11.6099	6.9383	2501.64	0.6245	0.6964
3.872	3	109.59	0.5	94.95	0.0109	4445	13	18.29	457.1		3.872	3	109.6	10.23	0.0109	1492.995	1.6768	12.5738	7.4986	2503.48	0.6225	0.6988
3.882	3	110.59	0.46	94.79	0.0099	4465	12	18.29	457.8		3.882	3	110.6	10.226	0.0099	1495.904	1.6713	11.6197	6.9523	2500.177	0.6257	0.6977
3.892	3	111.59	0.54	94.73	0.0122	4481	12	18.29	457.5		3.892	3	111.6	10.234	0.0122	1498.389	1.6652	11.5935	6.9624	2495.075	0.6293	0.6981
3.902	3	112.59	0.59	94.65	0.0113	4488	13	18.29	456.4		3.902	3	112.6	10.239	0.0113	1500.879	1.6622	12.542	7.5452	2494.814	0.631	0.6998
3.912	3	113.59	0.59	94.82	0.01	4464	12	18.3	455.1		3.912	3	113.6	10.239	0.01	1497.149	1.6695	11.5772	6.9344	2499.537	0.6267	0.7021
3.922	3	114.59	0.66	94.69	0.0111	4503	12	18.29	454.8		3.922	3	114.6	10.246	0.0111	1501.026	1.6566	11.5544	6.9749	2486.55	0.6342	0.7025
3.932	3	115.59	0.65	94.88	0.0085	4440	12	18.3	451.8		3.932	3	115.6	10.245	0.0085	1496.713	1.6759	11.5576	6.8964	2508.336	0.623	0.7075
3.942	3	116.59	0.65	94.55	0.0098	4473	12	18.29	451.4		3.942	3	116.6	10.245	0.0098	1503.964	1.6658	11.5576	6.9381	2505.323	0.6289	0.7082
3.952	3	117.59	0.7	94.84	0.0119	4534	11	18.3	451.3		3.952	3	117.6	10.25	0.0119	1498.319	1.6466	10.5796	6.425	2467.161	0.64	0.7084
3.962	3	118.59	0.72	94.9	0.0122	4504	11	18.3	451.1		3.962	3	118.6	10.252	0.0122	1497.298	1.6553	10.5737	6.3878	2478.472	0.635	0.7087
3.972	3	119.59	0.81	94.92	0.0119	4485	11	18.3	453.5		3.972	3	119.6	10.261	0.0119	1498.175	1.6596	10.5469	6.3552	2486.339	0.6325	0.7047
3.982	3	120.59	0.8	94.97	0.0144	4528	11	18.29	457.2		3.982	3	120.6	10.26	0.0144	1496.936	1.6468	10.5499	6.4063	2465.164	0.6399	0.6985
3.992	3	121.59	0.85	94.94	0.0136	4515	11	18.3	458.2		3.992	3	121.6	10.265	0.0136	1498.321	1.6499	10.5351	6.3853	2472.075	0.6381	0.6969
4.002	3	122.59	0.95	94.84	0.0177	4456	10	18.3	460		4.002	3	122.6	10.275	0.0177	1501.973	1.6661	9.5505	5.7322	2502.463	0.6287	0.6941
4.012	3	123.59	0.95	94.98	0.025	4498	10	18.3	461.6		4.012	3	123.6	10.275	0.025	1498.906	1.6534	9.5505	5.7763	2478.285	0.6361	0.6915
4.022	3	124.59	1.06	94.95	0.017	4471	10	18.3	460.6		4.022	3	124.6	10.286	0.017	1501.168	1.6598	9.5211	5.7364	2491.607	0.6324	0.6931
4.032	3	125.59	1.1	94.87	0.0262	4497	10	18.3	454.9		4.032	3	125.6	10.29	0.0262	1503.507	1.6513	9.5104	5.7594	2482.72	0.6373	0.7024
4.042	3	126.59	1.15	95.01	0.0254	4455	9	18.3	452		4.042	3	126.6	10.295	0.0254	1501.167	1.6632	8.5474	5.1392	2496.717	0.6304	0.7073
4.052	3	127.59	1.2	95.08	0.027	4438	9	18.3	436.5		4.052	3	127.6	10.3	0.027	1500.364	1.6676	8.5355	5.1185	2501.945	0.6279	0.7344
4.062	3	128.59	1.33	95.03	0.024	4517	9	18.3	428.1		4.062	3	128.6	10.313	0.024	1503.353	1.6416	8.5045	5.1806	2467.934	0.6429	0.75
4.072	3	129.59	1.37	94.81	0.0284	4356	10	18.31	425		4.072	3	129.6	10.317	0.0284	1508.774	1.6901	9.4389	5.5847	2550.015	0.6148	0.7557
4.082	3	130.59	1.52	94.48	0.0341	4337	9	18.31	425.2		4.082	3	130.6	10.332	0.0341	1518.295	1.6936	8.4595	4.995	2571.405	0.6128	0.7554
4.092	3	131.59	1.6	94.47	0.04	4446	9	18.31	422.4		4.092	3	131.6	10.34	0.04	1519.694	1.6587	8.4407	5.0888	2520.679	0.633	0.7609
4.102	3	132.59	1.72	94.93	0.0509	4462	9	18.31	423.9		4.102	3	132.6	10.352	0.0509	1511.241	1.6519	8.4126	5.0926	2496.436	0.6369	0.758
4.112	3	133.59	1.81	95.35	0.0399	4485	9	18.31	424.2		4.112	3	133.6	10.361	0.0399	1503.337	1.6436	8.3915	5.1057	2470.826	0.6418	0.7573
4.122	3	134.59	1.92	95.59	0.023	4443	9	18.32	422.3		4.122	3	134.6	10.372	0.023	1499.711	1.6545	8.3659	5.0566	2481.221	0.6355	0.7609
4.132	3	135.59	2.02	95.46	0.0164	4505	9	18.31	425.5		4.132	3	135.6	10.382	0.0164	1503.984	1.6343	8.3428	5.1049	2457.919	0.6472	0.7549
4.142	3	136.59	2.43	95.52	0.015	4493	9	18.32	427.4		4.142	3	136.6	10.423	0.015	1508.612	1.6314	8.2487	5.0562	2461.156	0.6488	0.7512
4.152	3	137.59	2.79	95.63	0.013	4505	9	18.32	431.7		4.152	3	137.6	10.459	0.013	1511.416	1.6222	8.1673	5.0346	2451.881	0.6542	0.7431
4.162	3	138.59	4.42	95.69	0.0036	4463	9	18.32	434		4.162	3	138.6	10.622	0.0036	1533.641	1.6096	7.8126	4.8537	2468.59	0.6615	0.7389
4.172	3	139.59	5.57	96.67	0.013	4436	9	18.31	436		4.172	3	139.6	10.737	0.013	1528.616	1.6003	7.5753	4.7338	2446.206	0.6669	0.7353
4.182	3	140.59	5.1	97.13	0.0049	4357	10	18.31	432.8		4.182	3	140.6	10.69	0.0049	1512.023	1.6308	8.5234	5.2264	2465.881	0.6492	0.741
4.192	3	141.59	4.82	96.12	0.0029	4416	9	18.32	424.7		4.192	3	141.6	10.662	0.0029	1529.918	1.6175	7.7289	4.7785	2474.574	0.6569	0.7564
4.202	3	142.59	4.5	95.99	0.0062	4383	10	18.32	411.7		4.202	3	142.6	10.63	0.0062	1528.177	1.6322	8.662	5.3069	2494.296	0.6484	0.7821
4.212	3	143.59	3.7	95.93	0.0062	4435	10	18.32	388.4		4.212	3	143.6	10.55	0.0062	1517.986	1.6289	8.8518	5.4341	2472.704	0.6503	0.8329
4.222	3	144.59	3.41	96.06	0.0042	4438	10	18.32	341.8		4.222	3	144.6	10.521	0.0042	1510.987	1.6325	8.922	5.4651	2466.731	0.6482	0.9556
4.232	3	145.59	3	95.95	0.0017	4434	11	18.33	262.3		4.232	3	145.6	10.48	0.0017	1507.48	1.6401	9.9249	6.0513	2472.446	0.6438	1.2713
4.242	3	146.59	4.71	100.88	0.0002	5020	12	18.32	188.6		4.242	3	146.6	10.651	0.0002	1430.625	1.4537	10.3358	7.1099	2079.714	0.7519	1.8142
4.252	3	147.59	6.17	999	0	10169	13	18.33	163.3		4.252	3	147.6	10.797	0	111.0151	0.62	10.7691	17.3688	68.8324	1.2355	2.1177
4.262	4	0.7	6.89	999	0	4460	14	18.33	189.8		4.262	4	0.7	10.869	0	111.7554	1.5739	11.3794	7.23	175.8931	0.6822	1.8015
4.272	4	1.7	7	96.67	0.0025	4258	16	18.32	250		4.272	4	1.7	10.88	0.0025	1548.975	1.6321	12.9675	7.9452	2528.118	0.6484	1.3385
4.282	4	2.7	7.13	96.91	0.0032	4276	16	18.33	313.5		4.282	4	2.7	10.893	0.0032	1545.545	1.6247	12.9234	7.9543	2511.056	0.6527	1.0491
4.292	4	3.7	6.7	97.23	0.0068	4348	17	18.33	362.4		4.292	4	3.7	10.85	0.0068	1532.486	1.6095	13.887	8.6283	2466.499	0.6616	0.8972
4.302	4	4.7	5.74	97.66	0.0001	4301	17	18.33	397.5		4.302	4	4.7	10.754	0.0001	1509.757	1.6381	14.2444	8.6959	2473.076	0.645	0.8123
4.312	4	5.7	2.32	95.06	0.0163	4406	16	18.33	419.7		4.312	4	5.7	10.412	0.0163	1517.121	1.6593	14.709	8.8644	2517.416	0.6326	0.7661
4.322	4	6.7	1.67	94.63	0.0137	4483	16	18.33	434.9		4.322	4	6.7	10.347	0.0137	1517.156	1.6464	14.9765	9.0966	2497.822	0.6401	0.7372
4.332	4	7.7	1	94.8	0.0125	4445	16	18.33	444.4		4.332	4	7.7	10.28	0.0125	1503.583	1.6687	15.2594	9.1447	2508.972	0.6272	0.7203
4.342	4	8.7	0.98	94.66	0.0266	4416	15	18.33	448.7		4.342	4	8.7	10.278	0.0266	1506.375	1.6779	14.3137	8.5308	2527.525	0.6219	0.7128
4.352	4	9.7	0.92	94.48	0.0296	4423	15	18.33	450.5		4.352	4	9.7	10.272	0.0296	1509.478	1.6767	14.3378	8.5512	2530.956	0.6226	0.7097
4.362	4	10.7	0.75	94.04	0.0319	4367	14	18.33	451.6		4.362	4	10.7	10.255	0.0319	1516.787	1.6969	13.446	7.9239	2573.821	0.6109	0.7079
4.372	4	11.7	0.7	93.93	0.037	4349	14	18.33	451.1		4.372	4	11.7	10.25	0.037	1518.519	1.7034	13.465	7.9049	2586.605	0.6071	0.7087
4.382	4	12.7	0.7	93.72	0.0439	4357	12	18.33	451.4		4.382	4	12.7	10.25	0.0439	1523.258	1.7009	11.5414	6.7856	2590.842	0.6086	0.7083
4.392	4	13.7	0.75	94.14	0.0665	4462	12	18.34	451.2		4.392	4	13.7	10.255	0.0665	1514.547	1.6675	11.5252	6.9115	2525.562	0.6279	0.7085
4.402	4	14.7	0.73	94.51	0.0519	4443	12	18.33	452.1		4.402	4	14.7	10.253	0.0519	1506.022	1.6737	11.5317	6.89	2520.583	0.6243	0.707
4.412	4	15.7	0.59	94.32	0.0473	4451	11	18.34	453.3		4.412	4	15.7	10.239	0.0473	1508.175	1.6735	10.6124	6.3414	2523.938	0.6244	0.7051
4.422	4	16.7	0.65	94.47	0.0423	4476	10	18.34	453.8		4.422	4	16.7	10.245	0.0423	1505.732	1.6649	9.6314	5.7849	2506.895	0.6294	0.7042
4.432	4	17.7	0.69	94.5	0.0367	4466	10	18.34	454		4.432	4	17.7	10.249	0.0367	1505.656	1.6673	9.6205	5.7702	2510.37	0.628	0.7038
4.442	4	18.7	0.76	94.43	0.0324	4474	10	18.33	453.9		4.442	4	18.7	10.256	0.0324	1508.235	1.6637	9.6016	5.7712	2509.286	0.6301	0.7041
4.452	4	19.7	0.83	94.44	0.0285	4430	9	18.34	453.6		4.452	4	19.7	10.263	0.0285	1509.043	1.676	8.6245	5.1458	2529.195	0.623	0.7046
4.462	4	20.7	0.88	94.42	0.0297	4515	10	18.35	452.6		4.462	4	20.7	10.268	0.0297	1510.222	1.6494	9.5693	5.8016	2490.981	0.6384	0.7063
4.472	4	21.7	0.98	94.43	0.0275	4368	9	18.35	449.7		4.472	4	21.7	10.278	0.0275	1511.471	1.6928	8.5882	5.0734	2558.587	0.6132	0.7111
4.482	4	22.7	0.93	94.33	0.0296	4354	10	18.35	447.7		4.482	4	22.7	10.273	0.0296	1512.96	1.698	9.5559	5.6278	2568.991	0.6102	0.7145
4.492	4	23.7	0.89	94.5	0.0419	4392	9	18.34	447.4		4.492	4	23.7	10.269	0.0419	1508.594	1.6868	8.6099	5.1044	2544.672	0.6167	0.7151
4.502	4	24.7	0.99	94.52	0.0378	4398	8	18.34	448.7		4.502	4	24.7	10.279	0.0378	1509.62	1.6833	7.6318	4.5339	2541.116	0.6187	0.7129
4.512	4	25.7	1.03	94.83	0.0261	4369	8	18.35	451.6		4.512	4	25.7	10.283	0.0261	1503.363	1.6916	7.6233	4.5064	2543.155	0.6139	0.7079
4.522	4	26.7	0.98	94.82	0.0271	4402	8	18.35	450.8		4.522	4	26.7	10.278	0.0271	1502.851	1.6822	7.634	4.5381	2528.109	0.6194	0.7092
4.532	4	27.7	1.01	94.88	0.025	4341	8	18.36	448.9		4.532	4	27.7	10.281	0.025	1501.972	1.7008	7.6276	4.4848	2554.485	0.6086	0.7125
4.542	4	28.7	1.04	94.82	0.0299	4389	8	18.35	445		4.542	4	28.7	10.284	0.0299	1503.729	1.6853	7.6212	4.5223	2534.165	0.6176	0.7192
4.552	4	29.7	1.01	94.82	0.0202	4244	8	18.35	441.3		4.552	4	29.7	10.281	0.0202	1503.29	1.7317	7.6276	4.4046	2603.313	0.5906	0.7257
4.562	4	30.7	1.03	94.57	0.0209	4341	8	18.36	438.1		4.562	4	30.7	10.283	0.0209	1509.099	1.7004	7.6233	4.4832	2566.107	0.6088	0.7315
4.572	4	31.7	0.99	94.55	0.0227	4293	8	18.35	435.2		4.572	4	31.7	10.279	0.0227	1508.955	1.7163	7.6318	4.4467	2589.835	0.5996	0.7367
4.582	4	32.7	1.04	94.44	0.0172	4324	8	18.35	431.8		4.582	4	32.7	10.284	0.0172	1512.13	1.7056	7.6212	4.4683	2579.125	0.6058	0.7429
4.592	4	33.7	1.03	94.28	0.0209	4240	8	18.36	426.8		4.592	4	33.7	10.283	0.0209	1515.549	1.7327	7.6233	4.3996	2625.999	0.5901	0.7524
4.602	4	34.7	1.04	94.46	0.0169	4324	8	18.36	422.7		4.602	4	34.7	10.284	0.0169	1511.686	1.7056	7.6212	4.4683	2578.366	0.6058	0.7601
4.612	4	35.7	1.05	94.52	0.0173	4344	8	18.36	419.4		4.612	4	35.7	10.285	0.0173	1510.501	1.6991	7.619	4.484	2566.566	0.6095	0.7667
4.622	4	36.7	1	94.58	0.0176	4338	8	18.37	415.7		4.622	4	36.7	10.28	0.0176	1508.437	1.7019	7.6297	4.4831	2567.156	0.608	0.774
4.632	4	37.7	0.95	94.46	0.0184	4319	8	18.36	410.2		4.632	4	37.7	10.275	0.0184	1510.363	1.7087	7.6404	4.4715	2580.76	0.604	0.7853
4.642	4	38.7	1.02	94.38	0.0167	4331	8	18.37	403.6		4.642	4	38.7	10.282	0.0167	1513.172	1.7037	7.6254	4.4757	2578.054	0.6069	0.7989
4.652	4	39.7	1.06	94.26	0.0274	4327	8	18.37	399.2		4.652	4	39.7	10.286	0.0274	1516.438	1.7043	7.6169	4.4691	2584.531	0.6065	0.8086
4.662	4	40.7	1.01	94.48	0.0307	4366	8	18.37	395.1		4.662	4	40.7	10.281	0.0307	1510.801	1.6929	7.6276	4.5056	2557.651	0.6132	0.8175
4.672	4	41.7	1.01	94.46	0.0242	4252	8	18.37	393.2		4.672	4	41.7	10.281	0.0242	1511.245	1.7292	7.6276	4.4112	2613.175	0.5921	0.8219
4.682	4	42.7	1.07	94.27	0.022	4278	8	18.37	392		4.682	4	42.7	10.287	0.022	1516.362	1.7198	7.6147	4.4278	2607.802	0.5976	0.8246
4.692	4	43.7	1.12	94.46	0.0104	4337	8	18.37	388.7		4.692	4	43.7	10.292	0.0104	1512.862	1.7002	7.6041	4.4725	2572.161	0.6089	0.8321
4.702	4	44.7	1.13	94.48	0.0128	4242	8	18.37	383.3		4.702	4	44.7	10.293	0.0128	1512.564	1.7304	7.602	4.3933	2617.3	0.5914	0.8448
4.712	4	45.7	1.13	94.45	0.0125	4259	8	18.37	381.6		4.712	4	45.7	10.293	0.0125	1513.232	1.7249	7.602	4.4072	2610.142	0.5946	0.8487
4.722	4	46.7	1.17	94.51	0.0067	4289	8	18.37	380.5		4.722	4	46.7	10.297	0.0067	1512.485	1.7146	7.5935	4.4287	2593.287	0.6006	0.8514
4.732	4	47.7	1.16	94.25	0.014	4242	8	18.38	379.8		4.732	4	47.7	10.296	0.014	1518.136	1.7299	7.5956	4.3908	2626.177	0.5917	0.8531
4.742	4	48.7	1.15	94.21	0.0174	4310	8	18.37	379.8		4.742	4	48.7	10.295	0.0174	1518.885	1.7082	7.5977	4.4477	2594.611	0.6043	0.8532
4.752	4	49.7	1.13	94.26	0.0157	4197	8	18.38	379.8		4.752	4	49.7	10.293	0.0157	1517.47	1.7451	7.602	4.3563	2648.065	0.5829	0.8532
4.762	4	50.7	1.2	94.26	0.0167	4275	8	18.38	382.6		4.762	4	50.7	10.3	0.0167	1518.502	1.7186	7.5871	4.4148	2609.646	0.5983	0.8463
4.772	4	51.7	1.23	94.47	0.0171	4254	8	18.38	384.1		4.772	4	51.7	10.303	0.0171	1514.256	1.7248	7.5807	4.3951	2611.814	0.5947	0.8428
4.782	4	52.7	1.06	94.45	0.014	4268	8	18.38	387.3		4.782	4	52.7	10.286	0.014	1512.202	1.7232	7.6169	4.4203	2605.758	0.5956	0.8353
4.792	4	53.7	1.04	94.29	0.0124	4261	8	18.38	388.3		4.792	4	53.7	10.284	0.0124	1515.473	1.7257	7.6212	4.4162	2615.318	0.5941	0.8331
4.802	4	54.7	1.05	94.21	0.0111	4252	8	18.39	387.9		4.802	4	54.7	10.285	0.0111	1517.409	1.7285	7.619	4.4079	2622.814	0.5925	0.8339
4.812	4	55.7	1.07	94.26	0.0148	4326	8	18.39	388		4.812	4	55.7	10.287	0.0148	1516.585	1.7045	7.6147	4.4675	2585.01	0.6064	0.8337
4.822	4	56.7	1.12	94.44	0.0132	4277	7	18.39	388.5		4.822	4	56.7	10.292	0.0132	1513.307	1.7193	6.6536	3.87	2601.768	0.5979	0.8326
4.832	4	57.7	1.2	94.4	0.0152	4255	8	18.38	387.6		4.832	4	57.7	10.3	0.0152	1515.374	1.725	7.5871	4.3983	2614.015	0.5945	0.8346
4.842	4	58.7	1.2	94.25	0.0189	4223	7	18.38	386.6		4.842	4	58.7	10.3	0.0189	1518.726	1.7354	6.6387	3.8255	2635.546	0.5885	0.837
4.852	4	59.7	1.2	94.19	0.0141	4212	8	18.39	387.1		4.852	4	59.7	10.3	0.0141	1520.071	1.739	7.5871	4.363	2643.333	0.5865	0.8359
4.862	4	60.7	1.2	94.17	0.0123	4253	7	18.39	385.7		4.862	4	60.7	10.3	0.0123	1520.52	1.7256	6.6387	3.8471	2623.872	0.5942	0.8391
4.872	4	61.7	1.2	94.18	0.0124	4245	8	18.39	381.8		4.872	4	61.7	10.3	0.0124	1520.295	1.7282	7.5871	4.3901	2627.414	0.5927	0.8484
4.882	4	62.7	1.25	94.41	0.0119	4341	7	18.41	380.1		4.882	4	62.7	10.305	0.0119	1515.887	1.6968	6.6294	3.907	2572.146	0.6109	0.8525
4.892	4	63.7	1.21	94.53	0.0137	4314	7	18.4	377.2		4.892	4	63.7	10.301	0.0137	1512.628	1.706	6.6368	3.8904	2580.501	0.6056	0.8594
4.902	4	64.7	1.16	94.54	0.0112	4273	8	18.41	375.2		4.902	4	64.7	10.296	0.0112	1511.672	1.7199	7.5956	4.4164	2599.888	0.5975	0.8645
4.912	4	65.7	1.14	94.2	0.0086	4199	7	18.41	374.3		4.912	4	65.7	10.294	0.0086	1518.961	1.7442	6.6499	3.8125	2649.412	0.5834	0.8666
4.922	4	66.7	1.09	94.06	0.0101	4188	7	18.42	375.4		4.922	4	66.7	10.289	0.0101	1521.366	1.7487	6.6592	3.8081	2660.402	0.5808	0.8638
4.932	4	67.7	1.04	93.92	0.0102	4186	7	18.42	374.2		4.932	4	67.7	10.284	0.0102	1523.781	1.7502	6.6685	3.8101	2666.925	0.5799	0.867
4.942	4	68.7	1.07	93.8	0.0095	4152	7	18.41	373.2		4.942	4	68.7	10.287	0.0095	1526.941	1.761	6.6629	3.7837	2688.886	0.5737	0.8695
4.952	4	69.7	0.99	93.66	0.0167	4190	7	18.42	374.1		4.952	4	69.7	10.279	0.0167	1528.931	1.7497	6.6779	3.8165	2675.222	0.5802	0.8671
4.962	4	70.7	0.94	93.43	0.0271	4208	7	18.42	375.5		4.962	4	70.7	10.274	0.0271	1533.433	1.7447	6.6872	3.833	2675.328	0.5831	0.8636
4.972	4	71.7	0.88	93.49	0.0252	4193	7	18.42	375.6		4.972	4	71.7	10.268	0.0252	1531.166	1.7506	6.6985	3.8264	2680.489	0.5797	0.8634
4.982	4	72.7	0.84	93.51	0.0192	4124	7	18.42	377		4.982	4	72.7	10.264	0.0192	1530.113	1.7743	6.706	3.7795	2714.883	0.566	0.86
4.992	4	73.7	0.79	93.63	0.0168	4198	7	18.42	379.3		4.992	4	73.7	10.259	0.0168	1526.637	1.7505	6.7155	3.8363	2672.388	0.5798	0.8542
5.002	4	74.7	0.79	93.59	0.0203	4150	7	18.42	379.6		5.002	4	74.7	10.259	0.0203	1527.546	1.7664	6.7155	3.8017	2698.315	0.5705	0.8535
5.012	4	75.7	0.69	93.56	0.0226	4185	7	18.42	383.1		5.012	4	75.7	10.249	0.0226	1526.739	1.7565	6.7344	3.834	2681.733	0.5763	0.8453
5.022	4	76.7	0.66	93.41	0.0281	4169	7	18.42	385.6		5.022	4	76.7	10.246	0.0281	1529.71	1.7623	6.7401	3.8245	2695.864	0.5729	0.8393
5.032	4	77.7	0.67	93.42	0.0232	4121	8	18.43	387.4		5.032	4	77.7	10.247	0.0232	1529.631	1.7783	7.7008	4.3305	2720.08	0.5637	0.8352
5.042	4	78.7	0.65	93.39	0.0233	4142	7	18.43	391.8		5.042	4	78.7	10.245	0.0233	1530.018	1.7715	6.742	3.8057	2710.478	0.5676	0.8251
5.052	4	79.7	0.6	93.39	0.0268	4177	7	18.43	395		5.052	4	79.7	10.24	0.0268	1529.271	1.7607	6.7515	3.8345	2692.6	0.5738	0.8178
5.062	4	80.7	0.6	93.39	0.0205	4207	7	18.43	397.9		5.062	4	80.7	10.24	0.0205	1529.271	1.7508	6.7515	3.8562	2677.43	0.5796	0.8114
5.072	4	81.7	0.54	93.48	0.0214	4138	7	18.44	401.2		5.072	4	81.7	10.234	0.0214	1526.324	1.7748	6.7629	3.8105	2708.892	0.5657	0.8042
5.082	4	82.7	0.46	93.54	0.0239	4206	7	18.44	403.6		5.082	4	82.7	10.226	0.0239	1523.767	1.7535	6.7782	3.8655	2671.948	0.578	0.7989
5.092	4	83.7	0.48	93.62	0.0223	4146	7	18.44	405.6		5.092	4	83.7	10.228	0.0223	1522.25	1.7731	6.7743	3.8205	2699.153	0.5666	0.7947
5.102	4	84.7	0.41	93.41	0.0174	4137	7	18.44	407.2		5.102	4	84.7	10.221	0.0174	1525.978	1.7774	6.7877	3.819	2712.237	0.5642	0.7914
5.112	4	85.7	0.46	93.29	0.0249	4201	7	18.44	408.9		5.112	4	85.7	10.226	0.0249	1529.464	1.7552	6.7782	3.8618	2684.461	0.5771	0.788
5.122	4	86.7	0.47	93.46	0.0194	4123	7	18.44	408.3		5.122	4	86.7	10.227	0.0194	1525.735	1.7811	6.7762	3.8046	2717.424	0.562	0.7891
5.132	4	87.7	0.42	93.6	0.0132	4133	7	18.44	406.1		5.132	4	87.7	10.222	0.0132	1521.81	1.7786	6.7858	3.8154	2706.618	0.5635	0.7937
5.142	4	88.7	0.43	93.47	0.0145	4143	7	18.44	404.1		5.142	4	88.7	10.223	0.0145	1524.91	1.775	6.7839	3.8219	2706.73	0.5655	0.7979
5.152	4	89.7	0.58	93.64	0.0137	4184	7	18.44	403.9		5.152	4	89.7	10.238	0.0137	1523.285	1.7587	6.7553	3.841	2679.046	0.575	0.7983
5.162	4	90.7	0.58	93.71	0.0162	4235	6	18.44	404.5		5.162	4	90.7	10.238	0.0162	1521.7	1.742	5.7902	3.324	2650.728	0.5847	0.7972
5.172	4	91.7	0.58	93.65	0.0205	4160	7	18.45	405.2		5.172	4	91.7	10.238	0.0205	1523.059	1.7667	6.7553	3.8236	2690.811	0.5704	0.7955
5.182	4	92.7	0.7	93.53	0.0148	4127	7	18.45	404.3		5.182	4	92.7	10.25	0.0148	1527.571	1.7757	6.7325	3.7914	2712.528	0.5651	0.7975
5.192	4	93.7	0.67	93.62	0.012	4059	7	18.45	404.2		5.192	4	93.7	10.247	0.012	1525.078	1.7994	6.7382	3.7447	2744.238	0.5514	0.7977
5.202	4	94.7	0.75	93.6	0.0125	4105	7	18.45	405.2		5.202	4	94.7	10.255	0.0125	1526.723	1.7823	6.723	3.7721	2721.056	0.5613	0.7957
5.212	4	95.7	1	93.68	0.012	4074	7	18.45	404.3		5.212	4	95.7	10.28	0.012	1528.625	1.7885	6.676	3.7327	2733.935	0.5577	0.7975
5.222	4	96.7	1.03	93.6	0.0137	4102	6	18.46	405.6		5.222	4	96.7	10.283	0.0137	1530.892	1.7784	5.7175	3.2149	2722.611	0.5635	0.7949
5.232	4	97.7	1.06	93.63	0.0169	4170	7	18.45	406.4		5.232	4	97.7	10.286	0.0169	1530.655	1.7552	6.6648	3.7973	2686.531	0.5771	0.793
5.242	4	98.7	1.16	93.69	0.0138	4123	6	18.46	407		5.242	4	98.7	10.296	0.0138	1530.776	1.7691	5.6967	3.2201	2708.131	0.569	0.7918
5.252	4	99.7	1.17	93.7	0.0141	4102	7	18.46	406		5.252	4	99.7	10.297	0.0141	1530.697	1.776	6.6443	3.7411	2718.564	0.5649	0.794
5.262	4	100.7	1.21	93.62	0.0147	4094	7	18.46	402.9		5.262	4	100.7	10.301	0.0147	1533.115	1.778	6.6368	3.7327	2725.952	0.5638	0.8006
5.272	4	101.7	1.2	93.66	0.0128	4098	6	18.46	404		5.272	4	101.7	10.3	0.0128	1532.054	1.7769	5.6903	3.2024	2722.254	0.5645	0.7981
5.282	4	102.7	1.23	93.6	0.0106	4118	6	18.46	405.8		5.282	4	102.7	10.303	0.0106	1533.869	1.7696	5.6855	3.2129	2714.337	0.5687	0.7944
5.292	4	103.7	1.26	93.59	0.0149	4144	7	18.46	407.5		5.292	4	103.7	10.306	0.0149	1534.544	1.7604	6.6276	3.7649	2701.383	0.574	0.7909
5.302	4	104.7	1.23	93.6	0.0176	4121	7	18.47	411.7		5.302	4	104.7	10.303	0.0176	1533.869	1.7686	6.6331	3.7505	2712.79	0.5693	0.7822
5.312	4	105.7	1.17	93.44	0.0183	4160	6	18.47	413.2		5.312	4	105.7	10.297	0.0183	1536.636	1.7566	5.6951	3.2421	2699.243	0.5762	0.7791
5.322	4	106.7	1.08	93.45	0.0278	4166	7	18.47	413.4		5.322	4	106.7	10.288	0.0278	1535.064	1.7561	6.661	3.793	2695.782	0.5765	0.7787
5.332	4	107.7	1.01	93.44	0.0296	4101	6	18.47	417.9		5.332	4	107.7	10.281	0.0296	1534.249	1.7791	5.7207	3.2154	2729.631	0.5631	0.7696
5.342	4	108.7	1.01	93.58	0.0303	4156	6	18.47	418.2		5.342	4	108.7	10.281	0.0303	1531.05	1.7607	5.7207	3.2492	2695.655	0.5739	0.769
5.352	4	109.7	0.95	93.76	0.0214	4176	7	18.47	418.5		5.352	4	109.7	10.275	0.0214	1526.066	1.755	6.6854	3.8092	2678.309	0.5771	0.7685
5.362	4	110.7	0.95	94.03	0.0174	4213	6	18.48	418.4		5.362	4	110.7	10.275	0.0174	1519.97	1.7429	5.7303	3.2879	2649.092	0.5842	0.7685
5.372	4	111.7	0.96	94.05	0.0279	4234	6	18.47	418.5		5.372	4	111.7	10.276	0.0279	1519.669	1.7358	5.7287	3.3003	2637.894	0.5883	0.7685
5.382	4	112.7	1.02	93.78	0.0258	4170	6	18.49	418.2		5.382	4	112.7	10.282	0.0258	1526.652	1.7558	5.7191	3.2572	2680.548	0.5767	0.7691
5.392	4	113.7	1.07	93.7	0.019	4227	5	18.49	419.1		5.392	4	113.7	10.287	0.019	1529.211	1.7363	4.7592	2.7411	2655.101	0.588	0.7673
5.402	4	114.7	1.06	93.63	0.0138	4221	7	18.5	419.5		5.402	4	114.7	10.286	0.0138	1530.655	1.7384	6.6648	3.8339	2660.861	0.5868	0.7664
5.412	4	115.7	1.03	93.65	0.0089	4162	7	18.5	419.8		5.412	4	115.7	10.283	0.0089	1529.753	1.7583	6.6704	3.7936	2689.794	0.5752	0.7658
5.422	4	116.7	1.1	94.05	0.0082	4186	6	18.5	418.3		5.422	4	116.7	10.29	0.0082	1521.739	1.7492	5.7063	3.2622	2661.798	0.5805	0.7688
5.432	4	117.7	1.11	93.68	0.0094	4235	7	18.5	417.3		5.432	4	117.7	10.291	0.0094	1530.26	1.733	6.6554	3.8405	2651.91	0.5899	0.7709
5.442	4	118.7	1.06	93.81	0.0065	4133	7	18.5	416.7		5.442	4	118.7	10.286	0.0065	1526.566	1.7675	6.6648	3.7708	2698.182	0.5699	0.772
5.452	4	119.7	1.05	93.69	0.0063	4118	7	18.51	416.5		5.452	4	119.7	10.285	0.0063	1529.141	1.7727	6.6666	3.7607	2710.705	0.5669	0.7725
5.462	4	120.7	1.06	93.87	0.005	4128	6	18.5	415		5.462	4	120.7	10.286	0.005	1525.208	1.7692	5.7127	3.229	2698.34	0.5689	0.7755
5.472	4	121.7	1.06	93.6	0.0084	4107	7	18.51	412.5		5.472	4	121.7	10.286	0.0084	1531.339	1.7762	6.6648	3.7522	2720.021	0.5648	0.7805
5.482	4	122.7	1.06	93.65	0.007	4098	7	18.51	412.9		5.482	4	122.7	10.286	0.007	1530.199	1.7793	6.6648	3.7458	2722.659	0.5631	0.7797
5.492	4	123.7	1.11	93.69	0.0062	4201	7	18.51	411.8		5.492	4	123.7	10.291	0.0062	1530.033	1.7441	6.6554	3.816	2668.497	0.5835	0.7818
5.502	4	124.7	1.11	93.69	0.0074	4222	7	18.51	412.4		5.502	4	124.7	10.291	0.0074	1530.033	1.7372	6.6554	3.8311	2657.988	0.5875	0.7807
5.512	4	125.7	1.17	93.7	0.0081	4157	7	18.51	412.2		5.512	4	125.7	10.297	0.0081	1530.697	1.7576	6.6443	3.7803	2690.337	0.5756	0.7812
5.522	4	126.7	1.26	93.66	0.0082	4134	7	18.52	412.3		5.522	4	126.7	10.306	0.0082	1532.947	1.7637	6.6276	3.7577	2703.689	0.5721	0.7809
5.532	4	127.7	1.27	93.65	0.0071	4148	7	18.52	413.8		5.532	4	127.7	10.307	0.0071	1533.323	1.7589	6.6257	3.767	2696.927	0.5749	0.7779
5.542	4	128.7	1.35	93.7	0.0067	4179	7	18.52	414.4		5.542	4	128.7	10.315	0.0067	1533.373	1.7472	6.6109	3.7836	2679.181	0.5816	0.7766
5.552	4	129.7	1.38	93.68	0.0085	4139	7	18.51	413.7		5.552	4	129.7	10.318	0.0085	1534.275	1.76	6.6054	3.7531	2700.324	0.5742	0.778
5.562	4	130.7	1.2	93.34	0.0075	4088	7	18.52	409.8		5.562	4	130.7	10.3	0.0075	1539.381	1.7803	6.6387	3.7291	2740.493	0.5625	0.7859
5.572	4	131.7	1.25	93.3	0.0109	4139	7	18.52	406		5.572	4	131.7	10.305	0.0109	1541.05	1.7622	6.6294	3.762	2715.669	0.573	0.794
5.582	4	132.7	1.35	93.43	0.0206	4154	6	18.52	386.6		5.582	4	132.7	10.315	0.0206	1539.552	1.7555	5.6665	3.2278	2702.712	0.5768	0.837
5.592	4	133.7	1.4	93.7	0.0078	4183	7	18.53	383.4		5.592	4	133.7	10.32	0.0078	1534.116	1.7451	6.6017	3.783	2677.161	0.5829	0.8445
5.602	4	134.7	1.43	93.48	0.0104	4090	7	18.53	381.3		5.602	4	134.7	10.323	0.0104	1539.597	1.7756	6.5962	3.7149	2733.728	0.5652	0.8494
5.612	4	135.7	1.26	93.63	0.0097	4150	7	18.53	382		5.612	4	135.7	10.306	0.0097	1533.631	1.7584	6.6276	3.7691	2696.709	0.5752	0.8477
5.622	4	136.7	1.38	93.49	0.0097	4139	6	18.53	383.2		5.622	4	136.7	10.318	0.0097	1538.622	1.76	5.6618	3.2169	2707.975	0.5742	0.845
5.632	4	137.7	1.38	93.13	0.0102	4098	7	18.54	381.9		5.632	4	137.7	10.318	0.0102	1546.927	1.7738	6.6054	3.7239	2743.885	0.5663	0.8481
5.642	4	138.7	1.45	93.23	0.0155	4153	7	18.53	384.3		5.642	4	138.7	10.325	0.0155	1545.659	1.7542	6.5925	3.7582	2711.317	0.5776	0.8424
5.652	4	139.7	1.48	93.44	0.0077	4148	7	18.53	380.9		5.652	4	139.7	10.328	0.0077	1541.262	1.7553	6.587	3.7526	2705.379	0.577	0.8504
5.662	4	140.7	1.63	93.67	0.0055	4108	7	18.53	378.7		5.662	4	140.7	10.343	0.0055	1538.221	1.7661	6.5595	3.7141	2716.672	0.5707	0.8558
5.672	4	141.7	1.92	93.71	0.0057	4144	6	18.53	378		5.672	4	141.7	10.372	0.0057	1541.617	1.7492	5.5773	3.1885	2696.564	0.5805	0.8576
5.682	4	142.7	2.17	93.84	0.0051	4221	7	18.54	376.4		5.682	4	142.7	10.397	0.0051	1542.353	1.7198	6.4619	3.7573	2652.571	0.5976	0.8613
5.692	4	143.7	4.05	94.46	0.0033	4089	7	18.54	374.2		5.692	4	143.7	10.585	0.0033	1555.931	1.732	6.1376	3.5437	2694.861	0.5905	0.8669
5.702	4	144.7	4.25	94.61	0.0021	4128	7	18.55	368.4		5.702	4	144.7	10.605	0.0021	1555.441	1.7159	6.1045	3.5575	2669.054	0.5998	0.8817
5.712	4	145.7	3.89	100.63	0.0002	4074	6	18.54	360.2		5.712	4	145.7	10.569	0.0002	1424.394	1.7396	5.2837	3.0373	2477.859	0.5861	0.9033
5.722	4	146.7	4.11	999	0	3998	7	18.54	343.2		5.722	4	146.7	10.591	0	108.897	1.7615	6.1276	3.4787	191.8215	0.5734	0.9516
5.732	4	147.7	4.11	999	0	4076	6	18.54	318.2		5.732	4	147.7	10.591	0	108.897	1.7353	5.2523	3.0267	188.9703	0.5886	1.0323
5.742	4	148.7	3.93	999	0	4048	6	18.54	279.2		5.742	4	148.7	10.573	0	108.712	1.7476	5.278	3.0201	189.9856	0.5814	1.1887
5.752	4	149.7	3.91	999	0	4159	7	18.55	233.3		5.752	4	149.7	10.571	0	108.6914	1.7114	6.161	3.6	186.0129	0.6024	1.442
5.762	4	150.7	3.85	134.47	0.0001	4071	6	18.55	190.6		5.762	4	150.7	10.565	0.0001	977.8785	1.7412	5.2894	3.0377	1702.726	0.5851	1.7933
5.772	4	151.7	6.61	999	0	4321	6	18.55	161.2		5.772	4	151.7	10.841	0	111.4676	1.6189	4.9129	3.0348	180.4538	0.6561	2.1476
5.782	5	0.09	6.83	999	0	8938	6	18.55	154.7		5.782	5	0.1	10.863	0	111.6938	0.7551	4.8846	6.4685	84.3439	1.1571	2.2459
5.792	5	1.09	7.16	999	0	4238	5	18.55	168.4		5.792	5	1.1	10.896	0	112.0331	1.6358	4.0354	2.4669	183.2678	0.6463	2.0498
5.802	5	2.09	7.27	999	0	4000	5	18.55	204.6		5.802	5	2.1	10.907	0	112.1462	1.7098	4.0238	2.3534	191.7475	0.6034	1.6612
5.812	5	3.09	6.94	999	0	4000	6	18.56	249.9		5.812	5	3.1	10.874	0	111.8069	1.715	4.8705	2.84	191.7475	0.6004	1.3395
5.822	5	4.09	6.38	999	0	4030	6	18.56	292.2		5.822	5	4.1	10.818	0	111.2311	1.7139	4.9428	2.8839	190.6431	0.601	1.1316
5.832	5	5.09	3.04	999	0	4008	6	18.56	323.4		5.832	5	5.1	10.484	0	107.7969	1.776	5.4076	3.0448	191.452	0.5649	1.0145
5.842	5	6.09	1.56	127.7	0.0001	3962	6	18.55	346.1		5.842	5	6.1	10.336	0.0001	1020.638	1.8176	5.6334	3.0994	1855.075	0.5409	0.9428
5.852	5	7.09	1.34	118.76	0.0001	4011	6	18.57	358.1		5.852	5	7.1	10.314	0.0001	1117.08	1.8043	5.6681	3.1415	2015.519	0.5486	0.9089
5.862	5	8.09	1.07	119.72	0.0001	3935	6	18.57	366.4		5.862	5	8.1	10.287	0.0001	1102.691	1.8358	5.7111	3.1109	2024.346	0.5303	0.8869
5.872	5	9.09	0.98	106.36	0.0003	3921	6	18.57	372.1		5.872	5	9.1	10.278	0.0003	1285.875	1.8424	5.7255	3.1075	2369.16	0.5264	0.8722
5.882	5	10.09	0.7	105.16	0.0003	3816	6	18.57	374.2		5.882	5	10.1	10.25	0.0003	1301.918	1.886	5.7707	3.0598	2455.385	0.5012	0.8668
5.892	5	11.09	0.76	123.39	0.0002	3959	7	18.57	377.4		5.892	5	11.1	10.256	0.0002	1057.756	1.8328	6.7211	3.6671	1938.663	0.532	0.859
5.902	5	12.09	0.75	122.81	0.0002	4163	6	18.57	376.4		5.902	5	12.1	10.255	0.0002	1064.017	1.7628	5.7626	3.269	1875.636	0.5726	0.8614
5.912	5	13.09	0.65	122.32	0.0003	4216	7	18.57	378.2		5.912	5	13.1	10.245	0.0003	1068.412	1.747	6.742	3.8592	1866.49	0.5818	0.857
5.922	5	14.09	0.7	109.57	0.001	4122	7	18.57	381.4		5.922	5	14.1	10.25	0.001	1232.86	1.7774	6.7325	3.7878	2191.286	0.5642	0.8493
5.932	5	15.09	0.7	109.86	0.0018	4170	7	18.58	386.7		5.932	5	15.1	10.25	0.0018	1228.575	1.7613	6.7325	3.8224	2163.908	0.5735	0.8368
5.942	5	16.09	0.75	99.23	0.0021	4112	7	18.58	389.8		5.942	5	16.1	10.255	0.0021	1408.654	1.7799	6.723	3.7772	2507.281	0.5627	0.8296
5.952	5	17.09	0.84	110.16	0.0016	4144	6	18.58	390.8		5.952	5	17.1	10.264	0.0016	1225.845	1.7676	5.748	3.2519	2166.784	0.5698	0.8272
5.962	5	18.09	0.9	96.71	0.0016	4171	6	18.58	391.3		5.962	5	18.1	10.27	0.0016	1461.298	1.7576	5.7384	3.265	2568.31	0.5757	0.826
5.972	5	19.09	0.95	103.15	0.0023	4114	6	18.57	390.7		5.972	5	19.1	10.275	0.0023	1339.286	1.7758	5.7303	3.2269	2378.268	0.5651	0.8275
5.982	5	20.09	1	110.44	0.0029	4139	6	18.57	389.4		5.982	5	20.1	10.28	0.0029	1223.664	1.7665	5.7223	3.2393	2161.609	0.5705	0.8305
5.992	5	21.09	0.95	94.78	0.0012	4094	6	18.59	388.3		5.992	5	21.1	10.275	0.0012	1503.292	1.7825	5.7303	3.2147	2679.688	0.5612	0.8331
6.002	5	22.09	1	98.1	0.0038	4005	7	18.59	385.3		6.002	5	22.1	10.28	0.0038	1434.352	1.8123	6.676	3.6836	2599.528	0.5439	0.84
6.012	5	23.09	1.08	92.55	0.0084	3975	6	18.58	385.3		6.012	5	23.1	10.288	0.0084	1555.959	1.8215	5.7095	3.1346	2834.104	0.5386	0.8401
6.022	5	24.09	1.05	92.59	0.0127	3943	6	18.58	385.6		6.022	5	24.1	10.285	0.0127	1554.565	1.8333	5.7143	3.1169	2850.025	0.5317	0.8394
6.032	5	25.09	1.04	92.55	0.0137	3937	6	18.57	389.6		6.032	5	25.1	10.284	0.0137	1555.354	1.8356	5.7159	3.1138	2855.078	0.5304	0.83
6.042	5	26.09	1.08	92.62	0.0142	3947	6	18.58	392.6		6.042	5	26.1	10.288	0.0142	1554.313	1.8314	5.7095	3.1176	2846.52	0.5328	0.8231
6.052	5	27.09	1.09	92.33	0.0121	3824	6	18.58	392.4		6.052	5	27.1	10.289	0.0121	1561.305	1.8759	5.7079	3.0428	2928.785	0.507	0.8236
6.062	5	28.09	1.09	91.97	0.0069	3787	6	18.59	391.8		6.062	5	28.1	10.289	0.0069	1569.881	1.8897	5.7079	3.0206	2966.543	0.499	0.8251
6.072	5	29.09	1.13	92.04	0.0068	3826	6	18.58	393.2		6.072	5	29.1	10.293	0.0068	1568.816	1.8744	5.7015	3.0418	2940.568	0.5079	0.8219
6.082	5	30.09	1.09	92.17	0.0036	4300	6	18.59	393.3		6.082	5	30.1	10.289	0.0036	1565.105	1.7124	5.7079	3.3332	2680.103	0.6018	0.8215
6.092	5	31.09	1.09	93.1	0.0039	4160	7	18.58	394.2		6.092	5	31.1	10.289	0.0039	1543.273	1.758	6.6592	3.788	2713.009	0.5754	0.8197
6.102	5	32.09	1.13	93.14	0.0129	4064	6	18.59	392.7		6.102	5	32.1	10.293	0.0129	1542.947	1.7897	5.7015	3.1858	2761.34	0.557	0.8231
6.112	5	33.09	1.1	93.12	0.0089	4127	6	18.58	391.5		6.112	5	33.1	10.29	0.0089	1542.96	1.7688	5.7063	3.226	2729.204	0.5691	0.8257
6.122	5	34.09	1.1	93.31	0.0131	4108	6	18.58	391.9		6.122	5	34.1	10.29	0.0131	1538.577	1.7752	5.7063	3.2144	2731.296	0.5654	0.8249
6.132	5	35.09	1.05	93.31	0.0118	4105	7	18.59	390.6		6.132	5	35.1	10.285	0.0118	1537.829	1.7771	6.6666	3.7514	2732.855	0.5643	0.8277
6.142	5	36.09	1.05	93.27	0.0116	4100	7	18.59	385.3		6.142	5	36.1	10.285	0.0116	1538.749	1.7788	6.6666	3.7479	2737.095	0.5634	0.8399
6.152	5	37.09	1.08	93.19	0.0125	4068	7	18.59	383.5		6.152	5	37.1	10.288	0.0125	1541.042	1.7892	6.661	3.723	2757.161	0.5573	0.8443
6.162	5	38.09	1.07	92.96	0.0124	4033	6	18.59	377.5		6.162	5	38.1	10.287	0.0124	1546.22	1.8014	5.7111	3.1704	2785.315	0.5502	0.8588
6.172	5	39.09	1.07	92.84	0.0102	4016	7	18.6	373.6		6.172	5	39.1	10.287	0.0102	1549.014	1.8073	6.6629	3.6867	2799.484	0.5468	0.8684
6.182	5	40.09	1.11	92.47	0.0157	3969	6	18.59	370.1		6.182	5	40.1	10.291	0.0157	1558.298	1.823	5.7047	3.1292	2840.835	0.5377	0.8773
6.192	5	41.09	1.11	92.43	0.0177	3957	7	18.6	366.5		6.192	5	41.1	10.291	0.0177	1559.242	1.8273	6.6554	3.6423	2849.177	0.5352	0.8866
6.202	5	42.09	1.12	92.53	0.0216	3963	6	18.6	363.7		6.202	5	42.1	10.292	0.0216	1557.035	1.825	5.7031	3.125	2841.559	0.5366	0.8939
6.212	5	43.09	1.26	92.64	0.0086	3993	7	18.6	360.2		6.212	5	43.1	10.306	0.0086	1556.562	1.812	6.6276	3.6577	2820.42	0.5441	0.9034
6.222	5	44.09	1.2	92.95	0.0078	3997	6	18.6	358.8		6.222	5	44.1	10.3	0.0078	1548.407	1.8116	5.6903	3.141	2805.109	0.5443	0.907
6.232	5	45.09	1.16	93.25	0.0071	4009	6	18.61	360.5		6.232	5	45.1	10.296	0.0071	1540.856	1.8081	5.6967	3.1506	2786.06	0.5463	0.9024
6.242	5	46.09	1.17	93.18	0.007	3970	6	18.6	361.9		6.242	5	46.1	10.297	0.007	1542.622	1.8216	5.6951	3.1264	2810.074	0.5385	0.8987
6.252	5	47.09	1.17	92.53	0.0045	3810	6	18.61	363.3		6.252	5	47.1	10.297	0.0045	1557.791	1.8796	5.6951	3.03	2928.022	0.5049	0.8949
6.262	5	48.09	1.11	91.83	0.0037	3779	6	18.61	362.5		6.262	5	48.1	10.291	0.0037	1573.547	1.8923	5.7047	3.0147	2977.625	0.4975	0.897
6.272	5	49.09	1.21	91.67	0.0022	3829	6	18.6	361.3		6.272	5	49.1	10.301	0.0022	1578.939	1.8718	5.6887	3.0391	2955.493	0.5094	0.9003
6.282	5	50.09	1.21	92.13	0.0038	3941	6	18.61	361.1		6.282	5	50.1	10.301	0.0038	1567.884	1.8312	5.6887	3.1066	2871.096	0.533	0.9007
6.292	5	51.09	1.27	92.82	0.0059	3930	6	18.61	361.5		6.292	5	51.1	10.307	0.0059	1552.493	1.834	5.6792	3.0965	2847.344	0.5313	0.8997
6.302	5	52.09	1.28	92.9	0.0043	3996	6	18.61	362.3		6.302	5	52.1	10.308	0.0043	1550.775	1.8106	5.6776	3.1358	2807.761	0.5449	0.8976
6.312	5	53.09	1.3	93.05	0.0066	4056	6	18.61	362.2		6.312	5	53.1	10.31	0.0066	1547.583	1.7894	5.6744	3.1711	2769.308	0.5572	0.8978
6.322	5	54.09	1.21	93.28	0.0064	3892	6	18.61	365.2		6.322	5	54.1	10.301	0.0064	1540.912	1.8488	5.6887	3.077	2848.808	0.5227	0.8899
6.332	5	55.09	1.2	92.85	0.005	3936	7	18.62	363.6		6.332	5	55.1	10.3	0.005	1550.738	1.8332	6.6387	3.6215	2842.736	0.5318	0.8942
6.342	5	56.09	1.25	92.66	0.0068	3964	7	18.62	362.1		6.342	5	56.1	10.305	0.0068	1555.941	1.8223	6.6294	3.6379	2835.431	0.5381	0.8982
6.352	5	57.09	1.17	92.85	0.0104	3962	6	18.61	361.1		6.352	5	57.1	10.297	0.0104	1550.286	1.8244	5.6951	3.1215	2828.417	0.5369	0.9009
6.362	5	58.09	1.29	92.95	0.0076	3912	7	18.62	361.1		6.362	5	58.1	10.309	0.0076	1549.76	1.8401	6.622	3.5987	2851.77	0.5278	0.9009
6.372	5	59.09	1.34	92.77	0.0075	3911	7	18.62	361.5		6.372	5	59.1	10.314	0.0075	1554.718	1.8396	6.6128	3.5947	2860.066	0.5281	0.8997
6.382	5	60.09	1.28	92.82	0.0061	3949	7	18.63	360.9		6.382	5	60.1	10.308	0.0061	1552.643	1.8271	6.6239	3.6253	2836.842	0.5353	0.9014
6.392	5	61.09	1.28	93.25	0.0049	4001	7	18.62	359.5		6.392	5	61.1	10.308	0.0049	1542.652	1.8088	6.6239	3.662	2790.361	0.5459	0.905
6.402	5	62.09	1.25	93.29	0.0043	3981	7	18.63	358.3		6.402	5	62.1	10.305	0.0043	1541.28	1.8163	6.6294	3.6499	2799.484	0.5416	0.9083
6.412	5	63.09	1.29	93.2	0.0044	4013	7	18.63	355.2		6.412	5	63.1	10.309	0.0044	1543.957	1.8045	6.622	3.6698	2785.999	0.5485	0.9169
6.422	5	64.09	1.22	93	0.0044	3977	7	18.63	353.5		6.422	5	64.1	10.302	0.0044	1547.544	1.8183	6.635	3.6491	2813.856	0.5404	0.9216
6.432	5	65.09	1.2	93.11	0.0042	3979	7	18.62	351.5		6.432	5	65.1	10.3	0.0042	1544.691	1.8179	6.6387	3.6518	2808.127	0.5406	0.9274
6.442	5	66.09	1.19	93.22	0.0034	4024	7	18.63	350.1		6.442	5	66.1	10.299	0.0034	1541.997	1.8024	6.6406	3.6843	2779.275	0.5497	0.9313
6.452	5	67.09	1.1	93.38	0.0047	3998	7	18.63	350.9		6.452	5	67.1	10.29	0.0047	1536.968	1.813	6.6573	3.6719	2786.555	0.5435	0.9291
6.462	5	68.09	1.13	93.26	0.0072	3960	7	18.64	349.2		6.462	5	68.1	10.293	0.0072	1540.177	1.8259	6.6517	3.643	2812.155	0.536	0.934
6.472	5	69.09	1.05	92.96	0.0063	3908	7	18.64	346.5		6.472	5	69.1	10.285	0.0063	1545.919	1.8459	6.6666	3.6116	2853.569	0.5244	0.9418
6.482	5	70.09	1.03	92.97	0.0051	3940	7	18.64	346.2		6.482	5	70.1	10.283	0.0051	1545.386	1.8348	6.6704	3.6356	2835.402	0.5309	0.9426
6.492	5	71.09	1.01	93.07	0.0068	3960	7	18.63	346.3		6.492	5	71.1	10.281	0.0068	1542.767	1.828	6.6741	3.6511	2820.173	0.5348	0.9424
6.502	5	72.09	0.9	93.03	0.0072	4015	7	18.64	347.6		6.502	5	72.1	10.27	0.0072	1542.042	1.8106	6.6947	3.6975	2792.035	0.5449	0.9386
6.512	5	73.09	0.9	93.06	0.0069	4000	7	18.64	348.7		6.512	5	73.1	10.27	0.0069	1541.348	1.8159	6.6947	3.6868	2798.858	0.5418	0.9354
6.522	5	74.09	0.84	92.99	0.0075	3949	6	18.64	352.3		6.522	5	74.1	10.264	0.0075	1542.067	1.8349	5.748	3.1325	2829.597	0.5308	0.9249
6.532	5	75.09	0.8	92.83	0.008	3934	7	18.64	355.8		6.532	5	75.1	10.26	0.008	1545.181	1.841	6.7136	3.6467	2844.699	0.5273	0.9152
6.542	5	76.09	0.71	92.69	0.0041	3925	7	18.65	360.5		6.542	5	76.1	10.251	0.0041	1547.087	1.8459	6.7306	3.6463	2855.71	0.5244	0.9025
6.552	5	77.09	0.71	92.56	0.0064	3912	7	18.65	362.6		6.552	5	77.1	10.251	0.0064	1550.129	1.8505	6.7306	3.6371	2868.588	0.5217	0.8969
6.562	5	78.09	0.66	92.58	0.007	3931	7	18.65	363.8		6.562	5	78.1	10.246	0.007	1548.904	1.8446	6.7401	3.6539	2857.118	0.5252	0.8936
6.572	5	79.09	0.63	92.82	0.0054	3935	6	18.65	363.9		6.572	5	79.1	10.243	0.0054	1542.853	1.8437	5.7821	3.1361	2844.574	0.5257	0.8934
6.582	5	80.09	0.62	92.84	0.0056	3957	7	18.66	365.5		6.582	5	80.1	10.242	0.0056	1542.238	1.836	6.7477	3.6751	2831.587	0.5301	0.889
6.592	5	81.09	0.67	92.55	0.0046	3895	7	18.66	367.6		6.592	5	81.1	10.247	0.0046	1549.758	1.8574	6.7382	3.6277	2878.569	0.5177	0.8835
6.602	5	82.09	0.63	92.63	0.0052	3954	7	18.66	367.5		6.602	5	82.1	10.243	0.0052	1547.281	1.8369	6.7458	3.6723	2842.224	0.5296	0.884
6.612	5	83.09	0.63	92.9	0.0065	3932	6	18.65	370.1		6.612	5	83.1	10.243	0.0065	1540.996	1.8448	5.7821	3.1343	2842.81	0.5251	0.8773
6.622	5	84.09	0.64	92.9	0.0049	4020	7	18.66	371.2		6.622	5	84.1	10.244	0.0049	1541.146	1.8135	6.7439	3.7188	2794.805	0.5432	0.8743
6.632	5	85.09	0.64	93.08	0.0057	4073	7	18.66	371.2		6.632	5	85.1	10.244	0.0057	1536.984	1.7951	6.7439	3.7568	2759.073	0.5539	0.8744
6.642	5	86.09	0.64	93.35	0.0061	4010	7	18.66	373.3		6.642	5	86.1	10.244	0.0061	1530.783	1.817	6.7439	3.7116	2781.361	0.5412	0.8692
6.652	5	87.09	0.64	93.23	0.0057	3989	7	18.66	375.6		6.652	5	87.1	10.244	0.0057	1533.533	1.8243	6.7439	3.6966	2797.669	0.5369	0.8634
6.662	5	88.09	0.7	92.96	0.0049	3966	7	18.66	376.1		6.662	5	88.1	10.25	0.0049	1540.658	1.8314	6.7325	3.6762	2821.552	0.5328	0.8622
6.672	5	89.09	0.81	93.25	0.0051	4009	7	18.67	374.7		6.672	5	89.1	10.261	0.0051	1535.618	1.8143	6.7117	3.6993	2786.06	0.5428	0.8657
6.682	5	90.09	0.86	93.31	0.0044	4093	7	18.67	372.9		6.682	5	90.1	10.266	0.0044	1534.988	1.7845	6.7023	3.7559	2739.109	0.5601	0.8702
6.692	5	91.09	0.9	93.38	0.0044	4044	7	18.67	370.3		6.692	5	91.1	10.27	0.0044	1533.981	1.8005	6.6947	3.7182	2762.003	0.5507	0.8768
6.702	5	92.09	1	93.63	0.0053	4063	7	18.67	368.3		6.702	5	92.1	10.28	0.0053	1529.762	1.7923	6.676	3.7249	2741.73	0.5555	0.8817
6.712	5	93.09	1.11	93.46	0.0055	4072	7	18.67	364.8		6.712	5	93.1	10.291	0.0055	1535.283	1.7873	6.6554	3.7238	2743.956	0.5584	0.8911
6.722	5	94.09	1.11	93.33	0.0059	4126	8	18.67	363.4		6.722	5	94.1	10.291	0.0059	1538.266	1.769	7.6062	4.2998	2721.154	0.569	0.8947
6.732	5	95.09	1.11	93.27	0.0068	4089	7	18.67	364.3		6.732	5	95.1	10.291	0.0068	1539.647	1.7815	6.6554	3.7359	2742.84	0.5618	0.8923
6.742	5	96.09	1.15	93.29	0.0063	4054	7	18.67	364		6.742	5	96.1	10.295	0.0063	1539.785	1.7927	6.648	3.7083	2760.425	0.5553	0.893
6.752	5	97.09	1.16	93.34	0.0065	4061	7	18.68	365.3		6.752	5	97.1	10.296	0.0065	1538.783	1.7902	6.6461	3.7126	2754.667	0.5568	0.8896
6.762	5	98.09	1.17	93.08	0.0102	4069	7	18.67	366		6.762	5	98.1	10.297	0.0102	1544.936	1.7872	6.6443	3.7176	2761.184	0.5584	0.8877
6.772	5	99.09	1.23	93.01	0.0102	4015	7	18.68	365.4		6.772	5	99.1	10.303	0.0102	1547.462	1.8048	6.6331	3.6753	2792.874	0.5483	0.8893
6.782	5	100.09	1.21	92.94	0.0065	3876	8	18.68	368		6.782	5	100.1	10.301	0.0065	1548.79	1.8546	7.585	4.0898	2872.363	0.5194	0.8827
6.792	5	101.09	1.2	92.76	0.0036	3899	7	18.68	367.2		6.792	5	101.1	10.3	0.0036	1552.842	1.8464	6.6387	3.5954	2867.212	0.5241	0.8846
6.802	5	102.09	1.21	92.54	0.0049	3945	7	18.68	367.1		6.802	5	102.1	10.301	0.0049	1558.161	1.8298	6.6368	3.6272	2851.072	0.5338	0.885
6.812	5	103.09	1.2	92.84	0.0045	4048	7	18.68	366.6		6.812	5	103.1	10.3	0.0045	1550.971	1.7939	6.6387	3.7007	2782.327	0.5546	0.8863
6.822	5	104.09	1.18	93.26	0.0046	4073	8	18.68	365.3		6.822	5	104.1	10.298	0.0046	1540.925	1.7857	7.5913	4.2512	2751.642	0.5593	0.8895
6.832	5	105.09	1.2	93.36	0.0057	4071	7	18.68	365.5		6.832	5	105.1	10.3	0.0057	1538.921	1.786	6.6387	3.717	2748.582	0.5591	0.889
6.842	5	106.09	1.2	93.28	0.0051	4019	8	18.68	366		6.842	5	106.1	10.3	0.0051	1540.763	1.8039	7.5871	4.2058	2779.453	0.5488	0.8877
6.852	5	107.09	1.15	93.2	0.0053	4071	7	18.69	366.5		6.852	5	107.1	10.295	0.0053	1541.86	1.7869	6.648	3.7204	2755.168	0.5586	0.8864
6.862	5	108.09	1.16	93.02	0.0057	4035	8	18.69	366.2		6.862	5	108.1	10.296	0.0057	1546.178	1.7991	7.5956	4.2219	2781.736	0.5516	0.8873
6.872	5	109.09	1.12	93.07	0.0068	4030	8	18.69	366		6.872	5	109.1	10.292	0.0068	1544.418	1.8015	7.6041	4.2209	2782.32	0.5502	0.8879
6.882	5	110.09	1.1	93.05	0.0055	4076	8	18.69	367.8		6.882	5	110.1	10.29	0.0055	1544.581	1.7861	7.6084	4.2598	2758.734	0.5591	0.8831
6.892	5	111.09	1.11	93.05	0.0052	4151	7	18.68	367		6.892	5	111.1	10.291	0.0052	1544.731	1.7606	6.6554	3.7802	2719.672	0.5739	0.8853
6.902	5	112.09	1.08	93.24	0.004	4069	7	18.69	365.6		6.902	5	112.1	10.288	0.004	1539.889	1.7888	6.661	3.7237	2754.571	0.5575	0.8888
6.912	5	113.09	1	93.22	0.004	4058	8	18.71	365.7		6.912	5	113.1	10.28	0.004	1539.152	1.794	7.6297	4.253	2761.202	0.5545	0.8886
6.922	5	114.09	1.05	93.35	0.0031	4086	8	18.72	365.4		6.922	5	114.1	10.285	0.0031	1536.91	1.7835	7.619	4.2719	2741.129	0.5606	0.8894
6.932	5	115.09	1.06	93.34	0.0026	4055	8	18.72	364.5		6.932	5	115.1	10.286	0.0026	1537.289	1.794	7.6169	4.2458	2757.834	0.5545	0.8918
6.942	5	116.09	1.06	93.33	0.0017	3984	7	18.72	365.2		6.942	5	116.1	10.286	0.0017	1537.519	1.8186	6.6648	3.6647	2796.188	0.5402	0.8899
6.952	5	117.09	1.05	92.99	0.0023	4003	7	18.72	363.7		6.952	5	117.1	10.285	0.0023	1545.222	1.8122	6.6666	3.6788	2800.18	0.544	0.8939
6.962	5	118.09	1.03	93.13	0.0022	3982	7	18.73	363		6.962	5	118.1	10.283	0.0022	1541.679	1.8199	6.6704	3.6653	2805.657	0.5395	0.8958
6.972	5	119.09	1	92.96	0.0021	3932	6	18.72	361.8		6.972	5	119.1	10.28	0.0021	1545.168	1.8381	5.7223	3.1131	2840.246	0.5289	0.899
6.982	5	120.09	1.02	92.51	0.0022	3906	7	18.73	362.8		6.982	5	120.1	10.282	0.0022	1555.993	1.8471	6.6722	3.6122	2874.124	0.5237	0.8963
6.992	5	121.09	1.05	92.03	0.0022	3847	7	18.72	360.5		6.992	5	121.1	10.285	0.0022	1567.835	1.8681	6.6666	3.5687	2928.857	0.5115	0.9025
7.002	5	122.09	1.05	92.04	0.0023	3981	7	18.73	358.6		7.002	5	122.1	10.285	0.0023	1567.596	1.8199	6.6666	3.6633	2852.82	0.5395	0.9075
7.012	5	123.09	1.06	92.64	0.0052	4075	7	18.72	359		7.012	5	123.1	10.286	0.0052	1553.542	1.7871	6.6648	3.7294	2776.348	0.5585	0.9066
7.022	5	124.09	1.1	92.8	0.0025	3975	8	18.72	359.9		7.022	5	124.1	10.29	0.0025	1550.399	1.8211	7.6084	4.1779	2823.428	0.5388	0.9041
7.032	5	125.09	1.15	92.48	0.0028	3920	7	18.73	361.1		7.032	5	125.1	10.295	0.0028	1558.668	1.8398	6.648	3.6135	2867.583	0.528	0.9009
7.042	5	126.09	1.2	92.54	0.004	4031	8	18.73	362.2		7.042	5	126.1	10.3	0.004	1558.009	1.7998	7.5871	4.2155	2804.087	0.5512	0.8977
7.052	5	127.09	1.24	92.98	0.0063	4039	8	18.73	363.9		7.052	5	127.1	10.304	0.0063	1548.309	1.7963	7.5786	4.2189	2781.271	0.5532	0.8934
7.062	5	128.09	1.17	93.18	0.0025	4019	7	18.74	364.5		7.062	5	128.1	10.297	0.0025	1542.622	1.8045	6.6443	3.6821	2783.617	0.5485	0.8917
7.072	5	129.09	1.22	92.86	0.0044	4087	8	18.73	365.8		7.072	5	129.1	10.302	0.0044	1550.805	1.7803	7.5828	4.2594	2760.821	0.5625	0.8884
7.082	5	130.09	1.26	92.91	0.0064	4031	8	18.74	365.5		7.082	5	130.1	10.306	0.0064	1550.241	1.7987	7.5744	4.2109	2788.48	0.5518	0.8892
7.092	5	131.09	1.15	93.03	0.0071	4056	8	18.74	364		7.092	5	131.1	10.295	0.0071	1545.796	1.792	7.5977	4.2397	2770.14	0.5557	0.8931
7.102	5	132.09	1.25	93.08	0.0065	4116	8	18.74	359		7.102	5	132.1	10.305	0.0065	1546.137	1.7699	7.5765	4.2807	2736.554	0.5685	0.9064
7.112	5	133.09	1.32	93.23	0.0073	4084	9	18.74	340.5		7.112	5	133.1	10.312	0.0073	1543.713	1.7795	8.5069	4.7804	2747.101	0.5629	0.9596
7.122	5	134.09	1.12	93.25	0.0034	4089	8	18.74	336.9		7.122	5	134.1	10.292	0.0034	1540.257	1.7813	7.6041	4.2688	2743.66	0.5619	0.9706
7.132	5	135.09	1.22	92.86	0.0099	3971	8	18.74	334.7		7.132	5	135.1	10.302	0.0099	1550.805	1.8204	7.5828	4.1655	2823.063	0.5392	0.9777
7.142	5	136.09	1.21	92.04	0.0068	4059	9	18.74	331.2		7.142	5	136.1	10.301	0.0068	1570.035	1.79	8.5331	4.7672	2810.324	0.5569	0.9887
7.152	5	137.09	1.27	92.21	0.0093	4029	8	18.74	329.9		7.152	5	137.1	10.307	0.0093	1566.89	1.7993	7.5722	4.2085	2819.238	0.5515	0.993
7.162	5	138.09	1.33	92.43	0.0072	3974	8	18.74	329.8		7.162	5	138.1	10.313	0.0072	1562.576	1.8174	7.5596	4.1596	2839.806	0.541	0.9932
7.172	5	139.09	1.39	92.35	0.0096	4035	8	18.75	329.3		7.172	5	139.1	10.319	0.0096	1565.382	1.7951	7.5469	4.2042	2810.009	0.5539	0.995
7.182	5	140.09	1.43	92.51	0.0052	4107	7	18.75	328		7.182	5	140.1	10.323	0.0052	1562.197	1.7699	6.5962	3.7269	2764.888	0.5685	0.9993
7.192	5	141.09	1.73	93.18	0.0014	3990	8	18.75	325.8		7.192	5	141.1	10.353	0.0014	1551.011	1.8048	7.4757	4.1422	2799.224	0.5483	1.0065
7.202	5	142.09	1.97	92.9	0.0008	4057	8	18.75	324.5		7.202	5	142.1	10.377	0.0008	1561.155	1.7775	7.4261	4.1777	2775.026	0.5641	1.0107
7.212	5	143.09	2.29	92.5	0.0006	4084	8	18.76	323.7		7.212	5	143.1	10.409	0.0006	1575.45	1.763	7.3606	4.1751	2777.454	0.5725	1.0136
7.222	5	144.09	5.16	98.12	0.0002	4006	8	18.75	320.1		7.222	5	144.1	10.696	0.0002	1491.979	1.7415	6.8078	3.9091	2598.301	0.585	1.0257
7.232	5	145.09	4.92	98.69	0.0002	3941	8	18.76	316.5		7.232	5	145.1	10.672	0.0002	1476.889	1.7675	6.8517	3.8764	2610.448	0.5699	1.0384
7.242	5	146.09	4.8	999	0	3828	8	18.75	309		7.242	5	146.1	10.66	0	109.6065	1.8091	6.8739	3.7995	198.2937	0.5457	1.0653
7.252	5	147.09	4.46	999	0	3730	8	18.76	291.3		7.252	5	147.1	10.626	0	109.2569	1.8507	6.9371	3.7484	202.1974	0.5217	1.1352
7.262	5	148.09	4.23	999	0	3954	7	18.76	265		7.262	5	148.1	10.603	0	109.0204	1.7745	6.1078	3.4419	193.4619	0.5658	1.2573
7.272	5	149.09	3.89	999	0	4049	8	18.76	229.3		7.272	5	149.1	10.569	0	108.6708	1.7479	7.0449	4.0304	189.9492	0.5812	1.4694
7.282	5	150.09	4	999	0	3978	8	18.76	188.9		7.282	5	150.1	10.58	0	108.7839	1.7702	7.0239	3.968	192.5642	0.5684	1.8105
7.292	5	151.09	4.55	999	0	4033	7	18.77	152.8		7.292	5	151.1	10.635	0	109.3495	1.7424	6.0552	3.4752	190.5333	0.5844	2.2749
7.302	5	152.09	7.01	999	0	8518	7	18.76	130.9		7.302	5	152.1	10.881	0	111.8788	0.8065	5.6718	7.0324	90.2325	1.1273	2.6872
7.312	6	0.32	6.65	999	0	4892	7	18.77	135.3		7.312	6	0.3	10.845	0	111.5087	1.46	5.7257	3.9218	162.8014	0.7483	2.5942
7.322	6	1.32	6.82	999	0	3999	8	18.77	172.5		7.322	6	1.3	10.862	0	111.6835	1.7172	6.5145	3.7936	191.7845	0.5991	1.9973
7.332	6	2.32	6.88	999	0	3933	8	18.77	230.3		7.332	6	2.3	10.868	0	111.7452	1.7384	6.5042	3.7416	194.2532	0.5868	1.4625
7.342	6	3.32	6.76	999	0	3951	8	18.77	275.5		7.342	6	3.3	10.856	0	111.6218	1.7342	6.5248	3.7624	193.5746	0.5892	1.2058
7.352	6	4.32	6.22	999	0	3959	8	18.77	302.5		7.352	6	4.3	10.802	0	111.0666	1.7402	6.6184	3.8033	193.2743	0.5858	1.0902
7.362	6	5.32	1.62	99.34	0.0001	3990	9	18.77	314.6		7.362	6	5.3	10.342	0.0001	1418.461	1.8067	8.436	4.6693	2562.724	0.5472	1.045
7.372	6	6.32	1.06	97.22	0.0004	4069	8	18.77	320.8		7.372	6	6.3	10.286	0.0004	1453.03	1.7892	7.6169	4.2572	2599.702	0.5573	1.0232
7.382	6	7.32	0.72	96.38	0.0003	4104	10	18.78	322.7		7.382	6	7.3	10.252	0.0003	1465.618	1.7831	9.6124	5.3907	2613.412	0.5608	1.0167
7.392	6	8.32	0.59	95.59	0.0004	4073	9	18.78	324.4		7.392	6	8.3	10.239	0.0004	1480.48	1.796	8.6829	4.8346	2658.939	0.5534	1.0109
7.402	6	9.32	0.47	94.98	0.0014	4026	9	18.78	326.5		7.402	6	9.3	10.227	0.0014	1491.904	1.8144	8.7123	4.8018	2706.877	0.5427	1.004
7.412	6	10.32	0.42	96.5	0.0008	3990	9	18.78	330.8		7.412	6	10.3	10.222	0.0008	1458.827	1.8279	8.7246	4.773	2666.594	0.5349	0.9899
7.422	6	11.32	0.46	101.27	0.0003	3917	9	18.78	337.1		7.422	6	11.3	10.226	0.0003	1366.382	1.8533	8.7148	4.7024	2532.265	0.5201	0.97
7.432	6	12.32	0.43	94.95	0.0003	3996	8	18.78	338.5		7.432	6	12.3	10.223	0.0003	1491.973	1.8256	7.753	4.2468	2723.758	0.5362	0.9659
7.442	6	13.32	0.37	93.72	0.0004	3948	8	18.79	340.4		7.442	6	13.3	10.217	0.0004	1518.353	1.8437	7.7662	4.2122	2799.443	0.5257	0.96
7.452	6	14.32	0.39	93.83	0.0006	3941	8	18.78	338.1		7.452	6	14.3	10.219	0.0006	1516.172	1.8459	7.7618	4.2049	2798.679	0.5244	0.9671
7.462	6	15.32	0.41	103.52	0.0003	3928	7	18.78	337.9		7.462	6	15.3	10.221	0.0003	1325.853	1.8502	6.7877	3.6686	2453.091	0.5219	0.9677
7.472	6	16.32	0.52	96.16	0.0003	4025	7	18.78	333.2		7.472	6	16.3	10.232	0.0003	1467.374	1.8138	6.7667	3.7306	2661.582	0.543	0.9822
7.482	6	17.32	0.58	95.63	0.0005	4172	8	18.79	333.9		7.482	6	17.3	10.238	0.0005	1479.48	1.7627	7.7203	4.3798	2607.901	0.5727	0.9802
7.492	6	18.32	0.62	94.8	0.0005	4140	8	18.79	332.9		7.492	6	18.3	10.242	0.0005	1498.025	1.7727	7.7116	4.3501	2655.586	0.5669	0.9833
7.502	6	19.32	0.56	95.84	0.002	4192	8	18.78	333		7.502	6	19.3	10.236	0.002	1474.716	1.7564	7.7246	4.3979	2590.224	0.5763	0.9829
7.512	6	20.32	0.61	98.52	0.0007	4210	8	18.79	333.4		7.512	6	20.3	10.241	0.0007	1420.585	1.7496	7.7138	4.4088	2485.499	0.5803	0.9817
7.522	6	21.32	0.66	99.08	0.0003	4180	9	18.79	336.1		7.522	6	21.3	10.246	0.0003	1410.323	1.7587	8.6658	4.9274	2480.31	0.575	0.9733
7.532	6	22.32	0.71	94.4	0.0003	4112	8	18.79	337.6		7.532	6	22.3	10.251	0.0003	1508.165	1.7806	7.6921	4.3199	2685.451	0.5623	0.9686
7.542	6	23.32	0.72	99.5	0.0002	3989	8	18.79	336.2		7.542	6	23.3	10.252	0.0002	1403.038	1.8229	7.6899	4.2185	2557.607	0.5378	0.973
7.552	6	24.32	0.73	113.1	0.0002	4091	8	18.79	331.7		7.552	6	24.3	10.253	0.0002	1182.993	1.7874	7.6878	4.3011	2114.474	0.5584	0.987
7.562	6	25.32	0.71	95.7	0.0004	4117	8	18.8	328		7.562	6	25.3	10.251	0.0004	1479.861	1.7789	7.6921	4.324	2632.549	0.5633	0.9992
7.572	6	26.32	0.8	107	0.0002	4102	8	18.8	328.6		7.572	6	26.3	10.26	0.0002	1273.427	1.7824	7.6727	4.3046	2269.8	0.5612	0.997
7.582	6	27.32	0.77	109.01	0.0002	4096	8	18.8	328.3		7.582	6	27.3	10.257	0.0002	1242.068	1.785	7.6791	4.302	2217.085	0.5597	0.9982
7.592	6	28.32	0.77	99.31	0.0001	4076	8	18.8	326.9		7.592	6	28.3	10.257	0.0001	1407.382	1.7918	7.6791	4.2857	2521.774	0.5558	1.0028
7.602	6	29.32	0.78	98.14	0.0002	4047	9	18.8	327.6		7.602	6	29.3	10.258	0.0002	1430.484	1.8016	8.6366	4.7938	2577.183	0.5501	1.0005
7.612	6	30.32	0.82	98.29	0.0002	3932	9	18.8	325.7		7.612	6	30.3	10.262	0.0002	1428.055	1.8414	8.6269	4.685	2629.579	0.527	1.0066
7.622	6	31.32	0.78	97.17	0.0003	3836	8	18.8	323.1		7.622	6	31.3	10.258	0.0003	1450.099	1.8771	7.677	4.0899	2721.941	0.5063	1.0154
7.632	6	32.32	0.83	104.6	0.0002	4038	9	18.8	321.2		7.632	6	32.3	10.263	0.0002	1312.908	1.8039	8.6245	4.7811	2368.289	0.5488	1.0221
7.642	6	33.32	0.84	116.93	0.0002	4079	8	18.8	317.5		7.642	6	33.3	10.264	0.0002	1134.144	1.7896	7.664	4.2826	2029.631	0.5571	1.0349
7.652	6	34.32	0.84	99.97	0.0003	3812	9	18.81	315.4		7.652	6	34.3	10.264	0.0003	1395.703	1.8849	8.622	4.5743	2630.753	0.5018	1.042
7.662	6	35.32	0.84	98.26	0.0003	3927	8	18.81	314		7.662	6	35.3	10.264	0.0003	1428.929	1.8428	7.664	4.1589	2633.24	0.5262	1.047
7.672	6	36.32	0.85	117.07	0.0001	3977	8	18.81	315.7		7.672	6	36.3	10.265	0.0001	1132.502	1.8248	7.6619	4.1987	2066.62	0.5366	1.0412
7.682	6	37.32	0.85	117.25	0.0001	3948	8	18.81	312.1		7.682	6	37.3	10.265	0.0001	1130.258	1.8351	7.6619	4.1752	2074.153	0.5307	1.054
7.692	6	38.32	0.84	116.64	0.0001	4041	9	18.81	309.9		7.692	6	38.3	10.264	0.0001	1137.79	1.8026	8.622	4.783	2051.021	0.5495	1.0622
7.702	6	39.32	0.81	102.98	0.0002	4105	8	18.85	310.9		7.702	6	39.3	10.261	0.0002	1340.431	1.7812	7.6705	4.3063	2387.634	0.5619	1.0583
7.712	6	40.32	0.86	113.96	0.0001	4090	8	18.85	315.7		7.712	6	40.3	10.266	0.0001	1172.855	1.7855	7.6597	4.29	2094.098	0.5595	1.0411
7.722	6	41.32	0.86	121.33	0.0001	4124	8	18.86	320		7.722	6	41.3	10.266	0.0001	1081.77	1.774	7.6597	4.3179	1919.013	0.5662	1.0259
7.732	6	42.32	0.86	144.89	0.0001	4055	8	18.86	321.5		7.732	6	42.3	10.266	0.0001	866.6216	1.7975	7.6597	4.2614	1557.713	0.5525	1.0209
7.742	6	43.32	0.86	105.67	0.0001	4127	8	18.86	320		7.742	6	43.3	10.266	0.0001	1295.558	1.7729	7.6597	4.3203	2296.954	0.5667	1.026
7.752	6	44.32	0.86	116.76	0.0001	4099	7	18.85	317.3		7.752	6	44.3	10.266	0.0001	1136.5	1.7824	6.7023	3.7602	2025.709	0.5612	1.0355
7.762	6	45.32	0.86	143.48	0.0001	4035	8	18.87	317.9		7.762	6	45.3	10.266	0.0001	877.0611	1.8044	7.6597	4.2451	1582.536	0.5485	1.0333
7.772	6	46.32	0.91	999	0	3947	8	18.86	318.5		7.772	6	46.3	10.271	0	105.6068	1.8344	7.649	4.1698	193.725	0.5311	1.0313
7.782	6	47.32	0.91	146.57	0	3904	8	18.86	315.2		7.782	6	47.3	10.271	0	854.9192	1.8498	7.649	4.135	1581.458	0.5221	1.0427
7.792	6	48.32	0.88	999	0	4067	8	18.86	309.2		7.792	6	48.3	10.268	0	105.5759	1.793	7.6554	4.2697	189.2957	0.5551	1.0646
7.802	6	49.32	0.87	999	0	4067	8	18.86	301.2		7.802	6	49.3	10.267	0	105.5657	1.7932	7.6576	4.2705	189.2957	0.555	1.0953
7.812	6	50.32	0.9	999	0	4164	8	18.86	294.2		7.812	6	50.3	10.27	0	105.5965	1.7599	7.6511	4.3475	185.8371	0.5743	1.1232
7.822	6	51.32	0.9	143.95	0	4206	8	18.86	291		7.822	6	51.3	10.27	0	873.8938	1.746	7.6511	4.3821	1525.82	0.5824	1.1368
7.832	6	52.32	0.94	146.5	0.0001	4150	7	18.86	290.1		7.832	6	52.3	10.274	0.0001	855.6675	1.7639	6.6872	3.7913	1509.276	0.572	1.1406
7.842	6	53.32	0.95	145.24	0	4095	7	18.87	290.8		7.842	6	53.3	10.275	0	864.8261	1.7822	6.6854	3.7512	1541.299	0.5614	1.1375
7.852	6	54.32	0.89	999	0	4089	8	18.86	289.7		7.852	6	54.3	10.269	0	105.5862	1.7853	7.6533	4.2869	188.502	0.5596	1.1421
7.862	6	55.32	0.94	999	0	4127	8	18.86	286.8		7.862	6	55.3	10.274	0	105.6376	1.7716	7.6426	4.314	187.144	0.5675	1.1545
7.872	6	56.32	0.93	117.58	0.0001	4016	8	18.87	285.7		7.872	6	56.3	10.273	0.0001	1127.043	1.8097	7.6447	4.2242	2039.646	0.5454	1.1594
7.882	6	57.32	0.83	999	0	3973	7	18.9	281.8		7.882	6	57.3	10.263	0	105.5245	1.8266	6.7079	3.6724	192.7506	0.5356	1.1769
7.892	6	58.32	0.91	155.42	0	3937	8	18.9	269.4		7.892	6	58.3	10.271	0	796.2633	1.838	7.649	4.1617	1463.507	0.529	1.2351
7.902	6	59.32	0.91	999	0	3909	8	18.9	267.4		7.902	6	59.3	10.271	0	105.6068	1.848	7.649	4.139	195.1642	0.5232	1.245
7.912	6	60.32	0.91	999	0	3924	8	18.91	266.4		7.912	6	60.3	10.271	0	105.6068	1.8426	7.649	4.1511	194.5939	0.5263	1.2504
7.922	6	61.32	0.91	999	0	3954	7	18.9	264.6		7.922	6	61.3	10.271	0	105.6068	1.8319	6.6929	3.6535	193.4619	0.5325	1.2594
7.932	6	62.32	1.01	999	0	3894	8	18.9	263.5		7.932	6	62.3	10.281	0	105.7096	1.8517	7.6276	4.1193	195.7373	0.5211	1.2652
7.942	6	63.32	1	999	0	3915	8	18.91	261		7.942	6	63.3	10.28	0	105.6993	1.8442	7.6297	4.137	194.9358	0.5254	1.2782
7.952	6	64.32	1.05	999	0	3985	7	18.91	261.9		7.952	6	64.3	10.285	0	105.7507	1.8185	6.6666	3.6661	192.3037	0.5403	1.2732
7.962	6	65.32	1.1	999	0	4127	8	18.91	261.9		7.962	6	65.3	10.29	0	105.8022	1.7688	7.6084	4.3014	187.144	0.5691	1.2732
7.972	6	66.32	1.14	999	0	4045	7	18.91	264		7.972	6	66.3	10.294	0	105.8433	1.796	6.6499	3.7026	190.095	0.5534	1.2626
7.982	6	67.32	1.42	999	0	3979	8	18.91	263.6		7.982	6	67.3	10.322	0	106.1312	1.814	7.5406	4.1568	192.527	0.5429	1.2645
7.992	6	68.32	1.6	999	0	4071	8	18.92	263.7		7.992	6	68.3	10.34	0	106.3163	1.7791	7.5028	4.2171	189.151	0.5631	1.2637
8.002	6	69.32	2.95	999	0	4019	8	18.91	265.8		8.002	6	69.3	10.475	0	107.7043	1.7738	7.228	4.0749	191.0468	0.5662	1.2534
8.012	6	70.32	4	999	0	4020	7	18.92	265		8.012	6	70.3	10.58	0	108.7839	1.7559	6.1459	3.5002	191.0101	0.5766	1.2571
8.022	6	71.32	3.78	999	0	3903	8	18.92	264.1		8.022	6	71.3	10.558	0	108.5577	1.7999	7.066	3.9258	195.3931	0.5511	1.262
8.032	6	72.32	3.89	999	0	3854	7	18.92	258.3		8.032	6	72.3	10.569	0	108.6708	1.8154	6.1643	3.3956	197.2798	0.5421	1.2925
8.042	6	73.32	3.75	999	0	3810	7	18.92	247.2		8.042	6	73.3	10.555	0	108.5269	1.8337	6.1878	3.3746	199.0008	0.5315	1.355
8.052	6	74.32	3.47	999	0	3846	8	18.92	225		8.052	6	74.3	10.527	0	108.239	1.8255	7.1259	3.9035	197.5908	0.5363	1.4996
8.062	6	75.32	3.59	999	0	3967	7	18.92	194.7		8.062	6	75.3	10.539	0	108.3624	1.7808	6.2148	3.4898	192.9748	0.5622	1.7526
8.072	6	76.32	3.41	999	0	3929	7	18.92	160.9		8.072	6	76.3	10.521	0	108.1773	1.7971	6.2454	3.4753	194.4045	0.5527	2.1528
8.082	6	77.32	6.4	999	0	4534	6	18.92	136.7		8.082	6	77.3	10.82	0	111.2516	1.5599	4.9402	3.1671	173.5386	0.6903	2.5654
8.092	6	78.32	6.93	999	0	6721	7	18.92	128		8.092	6	78.3	10.873	0	111.7966	1.0743	5.6837	5.2904	120.1071	0.972	2.7542
8.102	7	0.59	7.28	999	0	5441	6	18.93	134		8.102	7	0.6	10.908	0	112.1564	1.3208	4.8273	3.6549	148.1308	0.829	2.6209
8.112	7	1.59	7.57	999	0	3864	7	18.93	153.3		8.112	7	1.6	10.937	0	112.4546	1.7509	5.5893	3.1923	196.8923	0.5795	2.2682
8.122	7	2.59	7.68	999	0	3840	7	18.93	184.1		8.122	7	2.6	10.948	0	112.5677	1.7574	5.5733	3.1714	197.8246	0.5758	1.8617
8.132	7	3.59	7.21	999	0	3970	7	18.93	215.6		8.132	7	3.6	10.901	0	112.0845	1.7207	5.6422	3.279	192.8626	0.597	1.5701
8.142	7	4.59	6.45	999	0	3994	7	18.93	242.9		8.142	7	4.6	10.825	0	111.303	1.7247	5.756	3.3373	191.9697	0.5947	1.3812
8.152	7	5.59	1.61	999	0	4102	7	18.94	261.1		8.152	7	5.6	10.341	0	106.3265	1.7685	6.5632	3.7112	188.0356	0.5693	1.2774
8.162	7	6.59	1.2	999	0	4035	8	18.94	270.3		8.162	7	6.6	10.3	0	105.905	1.7984	7.5871	4.2188	190.4601	0.552	1.2308
8.172	7	7.59	0.65	999	0	4091	8	18.94	274.4		8.172	7	7.6	10.245	0	105.3395	1.7888	7.7051	4.3074	188.4301	0.5575	1.2111
8.182	7	8.59	0.59	999	0	4115	8	18.94	278.5		8.182	7	8.6	10.239	0	105.2778	1.7817	7.7181	4.3319	187.5711	0.5617	1.1918
8.192	7	9.59	0.6	999	0	4147	8	18.94	282.7		8.192	7	9.6	10.24	0	105.288	1.7707	7.7159	4.3575	186.4357	0.568	1.1728
8.202	7	10.59	0.59	126.57	0.0001	4205	7	18.94	283.7		8.202	7	10.6	10.239	0.0001	1022.469	1.7516	6.7534	3.8555	1790.974	0.5791	1.1683
8.212	7	11.59	0.54	999	0	4158	8	18.94	284.5		8.212	7	11.6	10.234	0	105.2264	1.7681	7.729	4.3714	186.048	0.5696	1.1646
8.222	7	12.59	0.54	999	0	4096	8	18.94	286.4		8.222	7	12.6	10.234	0	105.2264	1.789	7.729	4.3203	188.2506	0.5574	1.1564
8.232	7	13.59	0.54	999	0	4047	7	18.94	288.4		8.232	7	13.6	10.234	0	105.2264	1.8058	6.7629	3.745	190.0221	0.5477	1.1479
8.242	7	14.59	0.54	999	0	3994	7	18.94	292.1		8.242	7	14.6	10.234	0	105.2264	1.8244	6.7629	3.707	191.9697	0.5369	1.1322
8.252	7	15.59	0.54	999	0	3974	8	18.94	295.9		8.252	7	15.6	10.234	0	105.2264	1.8314	7.729	4.2202	192.7133	0.5328	1.1165
8.262	7	16.59	0.54	999	0	3845	7	18.95	295.3		8.262	7	16.6	10.234	0	105.2264	1.8781	6.7629	3.6008	197.6297	0.5057	1.1189
8.272	7	17.59	0.48	999	0	3930	7	18.95	293.3		8.272	7	17.6	10.228	0	105.1647	1.8482	6.7743	3.6653	194.3666	0.5231	1.127
8.282	7	18.59	0.53	999	0	3923	7	18.95	289.8		8.282	7	18.6	10.233	0	105.2161	1.8498	6.7648	3.657	194.6319	0.5221	1.1416
8.292	7	19.59	0.53	999	0	3943	7	18.95	283.9		8.292	7	19.6	10.233	0	105.2161	1.8426	6.7648	3.6712	193.8757	0.5263	1.1674
8.302	7	20.59	0.59	999	0	4056	8	18.95	282		8.302	7	20.6	10.239	0	105.2778	1.8018	7.7181	4.2834	189.6946	0.55	1.1759
8.312	7	21.59	0.52	999	0	4092	7	18.95	281.1		8.312	7	21.6	10.232	0	105.2058	1.7907	6.7667	3.7788	188.3942	0.5564	1.1798
8.322	7	22.59	0.58	999	0	4047	7	18.96	284.3		8.322	7	22.6	10.238	0	105.2675	1.8051	6.7553	3.7422	190.0221	0.5481	1.1654
8.332	7	23.59	0.63	999	0	3987	7	18.95	288.1		8.332	7	23.6	10.243	0	105.3189	1.8252	6.7458	3.6959	192.2294	0.5364	1.149
8.342	7	24.59	0.62	999	0	3994	7	18.95	294.6		8.342	7	24.6	10.242	0	105.3086	1.8229	6.7477	3.7016	191.9697	0.5377	1.1216
8.352	7	25.59	0.67	999	0	3944	7	18.96	297.9		8.352	7	25.6	10.247	0	105.36	1.8398	6.7382	3.6625	193.838	0.528	1.1083
8.362	7	26.59	0.69	999	0	3858	0	18.95	299.1		8.362	7	26.6	10.249	0	105.3806	1.8706	0	0	197.1246	0.5101	1.1033
8.372	7	27.59	0.72	999	0	3936	8	18.97	298		8.372	7	27.6	10.252	0	105.4114	1.8417	7.6899	4.1754	194.1398	0.5268	1.1079
8.382	7	28.59	0.71	999	0	3962	7	18.96	296		8.382	7	28.6	10.251	0	105.4011	1.8326	6.7306	3.6726	193.1619	0.5321	1.1161
8.392	7	29.59	0.77	999	0	3934	7	18.96	295.7		8.392	7	29.6	10.257	0	105.4628	1.8416	6.7192	3.6487	194.2153	0.5269	1.117
8.402	7	30.59	0.72	999	0	4036	7	18.97	296.3		8.402	7	30.6	10.252	0	105.4114	1.8065	6.7287	3.7248	190.4236	0.5473	1.1147
8.412	7	31.59	0.73	999	0	4076	8	18.97	295.1		8.412	7	31.6	10.253	0	105.4217	1.7925	7.6878	4.2888	188.9703	0.5554	1.1195
8.422	7	32.59	0.87	999	0	4002	8	18.97	297.9		8.422	7	32.6	10.267	0	105.5657	1.8157	7.6576	4.2175	191.6736	0.5419	1.1085
8.432	7	33.59	0.78	999	0	3976	8	18.97	300.2		8.432	7	33.6	10.258	0	105.4731	1.8264	7.677	4.2033	192.6387	0.5357	1.0992
8.442	7	34.59	0.82	999	0	4068	8	18.97	300		8.442	7	34.6	10.262	0	105.5143	1.7937	7.6683	4.2752	189.2595	0.5547	1.0999
8.452	7	35.59	0.89	999	0	4044	8	18.99	295.6		8.452	7	35.6	10.269	0	105.5862	1.8007	7.6533	4.2501	190.1314	0.5506	1.1177
8.462	7	36.59	0.93	999	0	4029	7	18.99	290.3		8.462	7	36.6	10.273	0	105.6274	1.8052	6.6891	3.7054	190.6798	0.548	1.1395
8.472	7	37.59	0.92	999	0	4047	8	18.99	284.7		8.472	7	37.6	10.272	0	105.6171	1.7992	7.6468	4.2502	190.0221	0.5515	1.1637
8.482	7	38.59	0.93	999	0	4096	8	19	280.1		8.482	7	38.6	10.273	0	105.6274	1.7822	7.6447	4.2894	188.2506	0.5614	1.1842
8.492	7	39.59	0.89	999	0	4042	8	19	277.3		8.492	7	39.6	10.269	0	105.5862	1.8014	7.6533	4.2485	190.2044	0.5502	1.1974
8.502	7	40.59	0.94	999	0	4018	8	18.99	274		8.502	7	40.6	10.274	0	105.6376	1.8089	7.6426	4.2251	191.0836	0.5459	1.2128
8.512	7	41.59	0.89	999	0	3994	7	19.01	274.3		8.512	7	41.6	10.269	0	105.5862	1.8181	6.6966	3.6832	191.9697	0.5405	1.2114
8.522	7	42.59	0.94	999	0	3922	8	19.01	274.2		8.522	7	42.6	10.274	0	105.6376	1.8428	7.6426	4.1472	194.6698	0.5262	1.2118
8.532	7	43.59	0.95	999	0	3960	7	19.01	277.4		8.532	7	43.6	10.275	0	105.6479	1.8291	6.6854	3.6551	193.2368	0.5342	1.1968
8.542	7	44.59	0.92	999	0	3897	7	19.01	280.7		8.542	7	44.6	10.272	0	105.6171	1.8522	6.691	3.6125	195.6225	0.5208	1.1814
8.552	7	45.59	0.96	999	0	3866	7	19	287.8		8.552	7	45.6	10.276	0	105.6582	1.8628	6.6835	3.588	196.8149	0.5146	1.1502
8.562	7	46.59	0.96	999	0	3970	7	19.01	290.3		8.562	7	46.6	10.276	0	105.6582	1.8253	6.6835	3.6615	192.8626	0.5363	1.1397
8.572	7	47.59	0.95	999	0	3995	7	19.02	289.7		8.572	7	47.6	10.275	0	105.6479	1.8167	6.6854	3.6799	191.9326	0.5413	1.1422
8.582	7	48.59	0.96	999	0	4032	6	19.51	283.4		8.582	7	48.6	10.276	0	105.6582	1.8036	5.7287	3.1762	190.5699	0.5489	1.1695
8.592	7	49.59	1.05	999	0	4200	7	20.3	278.3		8.592	7	49.6	10.285	0	105.7507	1.7454	6.6666	3.8195	184.5799	0.5827	1.1928
8.602	7	50.59	1.01	999	0	4066	7	20.13	277.2		8.602	7	50.6	10.281	0	105.7096	1.7911	6.6741	3.7264	189.3319	0.5562	1.1976
8.612	7	51.59	0.94	999	0	4115	7	20.53	277.8		8.612	7	51.6	10.274	0	105.6376	1.7756	6.6872	3.7662	187.5711	0.5652	1.1948
8.622	7	52.59	0.98	999	0	4074	7	21.36	280.7		8.622	7	52.6	10.278	0	105.6788	1.7888	6.6797	3.7341	189.0425	0.5575	1.1817
8.632	7	53.59	0.95	999	0	3992	8	22.06	281.2		8.632	7	53.6	10.275	0	105.6479	1.8178	7.6404	4.2032	192.0438	0.5407	1.1795
8.642	7	54.59	0.95	999	0	4075	7	22.5	280.5		8.642	7	54.6	10.275	0	105.6479	1.789	6.6854	3.7369	189.0064	0.5574	1.1828
8.652	7	55.59	1.06	999	0	3996	7	22.79	267.4		8.652	7	55.6	10.286	0	105.761	1.8144	6.6648	3.6732	191.8956	0.5427	1.2453
8.662	7	56.59	1.05	999	0	3970	7	22.98	267		8.662	7	56.6	10.285	0	105.7507	1.8237	6.6666	3.6555	192.8627	0.5373	1.2472
8.672	7	57.59	1.15	999	0	4052	6	23.14	266.1		8.672	7	57.6	10.295	0	105.8536	1.7934	5.6983	3.1773	189.84	0.5549	1.2515
8.682	7	58.59	1.2	999	0	4090	7	23.25	266.7		8.682	7	58.6	10.3	0	105.905	1.7796	6.6387	3.7305	188.466	0.5629	1.2484
8.692	7	59.59	1.25	999	0	4315	7	23.33	267.7		8.692	7	59.6	10.305	0	105.9564	1.705	6.6294	3.8882	180.6549	0.6062	1.2434
8.702	7	60.59	1.28	999	0	4321	5	23.38	271.3		8.702	7	60.6	10.308	0	105.9872	1.7026	4.7313	2.7789	180.4538	0.6075	1.2257
8.712	7	61.59	1.27	999	0	4234	7	23.41	279.7		8.712	7	61.6	10.307	0	105.977	1.7306	6.6257	3.8285	183.4052	0.5913	1.1862
8.722	7	62.59	1.33	999	0	4138	6	23.44	285.4		8.722	7	62.6	10.313	0	106.0386	1.7612	5.6697	3.2192	186.7539	0.5736	1.1607
8.732	7	63.59	1.33	999	0	4145	7	23.46	291.9		8.732	7	63.6	10.313	0	106.0386	1.7589	6.6146	3.7608	186.5063	0.5749	1.133
8.742	7	64.59	1.63	999	0	4101	6	23.47	294.1		8.742	7	64.6	10.343	0	106.3471	1.7685	5.6224	3.1793	188.0714	0.5693	1.1236
8.752	7	65.59	1.69	999	0	4037	7	23.48	293		8.752	7	65.6	10.349	0	106.4088	1.7892	6.5486	3.66	190.387	0.5573	1.1281
8.762	7	66.59	3.89	999	0	4103	7	23.5	288.2		8.762	7	66.6	10.569	0	108.6708	1.73	6.1643	3.5632	187.9998	0.5917	1.1484
8.772	7	67.59	4.52	999	0	4174	6	23.51	283.5		8.772	7	67.6	10.632	0	109.3186	1.6968	5.1944	3.0614	185.4865	0.6109	1.169
8.782	7	68.59	4.15	999	0	4160	7	23.52	280.1		8.782	7	68.6	10.595	0	108.9382	1.7072	6.121	3.5854	185.9777	0.6049	1.1846
8.792	7	69.59	3.9	999	0	4182	7	23.52	275.8		8.792	7	69.6	10.57	0	108.6811	1.7041	6.1626	3.6163	185.2068	0.6067	1.2043
8.802	7	70.59	4.03	999	0	4208	6	23.53	263.5		8.802	7	70.6	10.583	0	108.8148	1.6937	5.2637	3.1077	184.3024	0.6127	1.2648
8.812	7	71.59	3.91	999	0	4202	6	23.53	235.4		8.812	7	71.6	10.571	0	108.6914	1.6976	5.2808	3.1108	184.5105	0.6105	1.4286
8.822	7	72.59	4.11	999	0	4255	5	23.55	184.7		8.822	7	72.6	10.591	0	108.897	1.6776	4.3769	2.609	182.6857	0.622	1.8552
8.832	7	73.59	3.15	999	0	4257	4	23.56	124.8		8.832	7	73.6	10.495	0	107.91	1.6923	3.5943	2.1239	182.6174	0.6135	2.8294
8.842	7	74.59	2.76	999	0	4754	3	23.57	81.3		8.842	7	74.6	10.456	0	107.509	1.5517	2.7247	1.756	166.8185	0.6951	4.4929
