Geotek MSCL 7.9 - TN336_JPC1-01.raw created at 6:41:07 on 1/19/2016.


Core Depth	Section	Sect Depth	CTD 	Tr. Time 	PW Amp   	A Gamma  	Mag Sus  	Temp     	NC Res   
m		cm	mm	µsec		cps	SI x 10^-5	°C	mV

-0.639	before cal	-0.02	5.27	98.05	0.0003	13215	-1.0	20.02	8.4
-0.579	cal	5.98	2.35	96.27	0.0184	6618	-1.0	20.01	28.3
-0.519	cal	11.98	0.73	95.86	0.0412	6674	-1.0	20.02	28.7
-0.459	cal	17.98	0.51	95.71	0.0305	6696	-2.0	20.02	31.0
-0.399	cal	23.98	3.16	96.97	0.0008	6706	-1.0	20.05	41.0
-0.339	cal	29.98	4.47	97.45	0.0304	6665	-1.0	20.04	95.1
-0.279	cal	35.98	4.04	96.35	0.0339	6487	-1.0	20.05	639.5
-0.219	cal	41.98	1.42	95.07	0.0037	6714	-1.0	20.04	809.0
-0.159	cal	47.98	0.56	94.84	0.0326	6776	-2.0	20.05	800.0
-0.099	cal	53.98	2.71	96.07	0.0026	6644	-1.0	20.06	785.5
-0.039	cal	59.98	2.48	95.71	0.0020	6622	2.0	20.06	542.0
0.001	1	0.10	6.47	999.00	0.0000	8497	13.0	20.07	215.7
0.011	1	1.10	6.69	999.00	0.0000	4406	15.0	20.07	243.5
0.021	1	2.10	6.26	999.00	0.0000	4031	17.0	20.07	296.0
0.031	1	3.10	5.84	999.00	0.0000	3809	18.0	20.07	349.6
0.041	1	4.10	5.43	999.00	0.0000	3839	18.0	20.07	390.4
0.051	1	5.10	1.99	93.60	0.0001	3991	18.0	20.07	417.4
0.061	1	6.10	1.38	88.83	0.0004	3962	19.0	20.07	435.6
0.071	1	7.10	1.36	87.52	0.0004	3750	19.0	20.07	447.9
0.081	1	8.10	1.08	88.12	0.0011	4087	20.0	20.07	456.8
0.091	1	9.10	0.92	91.66	0.0014	4406	21.0	20.08	461.1
0.101	1	10.10	0.61	93.27	0.0044	4404	22.0	20.08	468.3
0.111	1	11.10	0.65	93.77	0.0047	4440	22.0	20.07	474.4
0.121	1	12.10	0.64	93.72	0.0062	4312	20.0	20.07	480.8
0.131	1	13.10	0.52	93.86	0.0041	4367	20.0	20.07	486.9
0.141	1	14.10	0.52	94.02	0.0045	4400	18.0	20.07	490.0
0.151	1	15.10	0.58	94.04	0.0045	4423	17.0	20.07	491.2
0.161	1	16.10	0.57	94.44	0.0056	4566	15.0	20.08	489.5
0.171	1	17.10	0.48	94.99	0.0096	4594	14.0	20.07	485.8
0.181	1	18.10	0.49	95.23	0.0080	4566	13.0	20.07	483.3
0.191	1	19.10	0.57	95.26	0.0091	4550	13.0	20.07	482.4
0.201	1	20.10	0.51	95.08	0.0102	4515	13.0	20.07	482.0
0.211	1	21.10	0.52	94.94	0.0086	4493	12.0	20.08	481.3
0.221	1	22.10	0.54	94.95	0.0107	4526	12.0	20.08	480.9
0.231	1	23.10	0.46	94.86	0.0109	4408	13.0	20.08	480.2
0.241	1	24.10	0.51	94.67	0.0138	4448	12.0	20.08	478.5
0.251	1	25.10	0.51	94.64	0.0108	4298	13.0	20.08	476.1
0.261	1	26.10	0.46	94.42	0.0085	4215	12.0	20.08	475.4
0.271	1	27.10	0.51	94.25	0.0074	4272	12.0	20.09	473.2
0.281	1	28.10	0.52	94.41	0.0084	4329	12.0	20.08	466.5
0.291	1	29.10	0.51	94.72	0.0075	4378	12.0	20.08	460.0
0.301	1	30.10	0.46	94.82	0.0076	4396	12.0	20.07	449.5
0.311	1	31.10	0.55	94.89	0.0047	4278	12.0	20.08	435.6
0.321	1	32.10	0.53	94.83	0.0044	4326	12.0	20.09	429.8
0.331	1	33.10	0.54	94.68	0.0042	4304	12.0	20.08	416.7
0.341	1	34.10	0.58	94.67	0.0054	4373	11.0	20.09	407.4
0.351	1	35.10	0.53	94.52	0.0054	4285	11.0	20.08	396.7
0.361	1	36.10	0.56	94.34	0.0064	4200	11.0	20.09	387.4
0.371	1	37.10	0.58	93.92	0.0054	4186	12.0	20.09	380.4
0.381	1	38.10	0.49	93.75	0.0049	4109	11.0	20.09	372.6
0.391	1	39.10	0.53	93.62	0.0061	4058	11.0	20.09	367.9
0.401	1	40.10	0.53	93.35	0.0040	4034	11.0	20.08	361.9
0.411	1	41.10	0.54	93.27	0.0038	3991	11.0	20.09	357.8
0.421	1	42.10	0.64	93.18	0.0031	4056	11.0	20.09	353.2
0.431	1	43.10	0.57	93.22	0.0045	3960	11.0	20.08	352.0
0.441	1	44.10	0.64	93.05	0.0030	3935	10.0	20.09	352.1
0.451	1	45.10	0.72	92.88	0.0032	3863	11.0	20.09	350.9
0.461	1	46.10	0.68	92.61	0.0032	3865	11.0	20.12	349.9
0.471	1	47.10	0.73	92.52	0.0025	3873	11.0	20.12	349.1
0.481	1	48.10	0.36	92.11	0.0024	3771	10.0	20.12	348.8
0.491	1	49.10	0.41	92.02	0.0034	3865	11.0	20.13	345.4
0.501	1	50.10	0.41	92.04	0.0022	3763	11.0	20.12	344.1
0.511	1	51.10	0.35	91.92	0.0029	3918	11.0	20.12	342.0
0.521	1	52.10	0.35	92.55	0.0035	3878	11.0	20.13	341.8
0.531	1	53.10	0.35	92.31	0.0025	3821	10.0	20.12	341.2
0.541	1	54.10	0.36	92.21	0.0025	3824	10.0	20.13	338.9
0.551	1	55.10	0.36	92.33	0.0024	3881	10.0	20.12	337.7
0.561	1	56.10	0.38	92.28	0.0025	3871	11.0	20.13	336.5
0.571	1	57.10	0.36	92.15	0.0023	3773	10.0	20.13	338.3
0.581	1	58.10	0.36	92.01	0.0020	3766	10.0	20.13	340.1
0.591	1	59.10	0.37	91.82	0.0020	3796	10.0	20.13	344.5
0.601	1	60.10	0.37	91.82	0.0018	3786	10.0	20.13	346.3
0.611	1	61.10	0.35	91.73	0.0015	3806	10.0	20.14	347.7
0.621	1	62.10	0.35	91.82	0.0012	3788	10.0	20.14	346.4
0.631	1	63.10	0.35	91.88	0.0012	3855	11.0	20.13	344.2
0.641	1	64.10	0.35	92.11	0.0013	3776	11.0	20.13	339.9
0.651	1	65.10	0.35	92.10	0.0012	3774	11.0	20.14	330.7
0.661	1	66.10	0.35	92.20	0.0010	3887	11.0	20.14	315.1
0.671	1	67.10	0.34	92.76	0.0015	3930	10.0	20.14	312.9
0.681	1	68.10	0.34	92.92	0.0015	3981	11.0	20.13	314.7
0.691	1	69.10	0.33	92.72	0.0012	3924	11.0	20.13	314.5
0.701	1	70.10	0.29	92.51	0.0011	3937	11.0	20.14	315.8
0.711	1	71.10	0.29	92.46	0.0011	3881	10.0	20.14	315.6
0.721	1	72.10	0.31	92.48	0.0012	3921	10.0	20.13	316.2
0.731	1	73.10	0.34	92.46	0.0011	3843	10.0	20.14	314.4
0.741	1	74.10	0.55	92.51	0.0010	3934	10.0	20.13	315.4
0.751	1	75.10	0.76	92.24	0.0010	3825	11.0	20.13	318.3
0.761	1	76.10	1.01	92.17	0.0028	3802	10.0	20.14	318.6
0.771	1	77.10	3.14	92.58	0.0002	3810	11.0	20.14	319.0
0.781	1	78.10	3.58	93.26	0.0004	3787	11.0	20.13	314.6
0.791	1	79.10	3.51	999.00	0.0000	3738	11.0	20.15	310.3
0.801	1	80.10	3.63	92.89	0.0008	3765	10.0	20.14	297.1
0.811	1	81.10	3.27	92.00	0.0003	3780	10.0	20.15	275.6
0.821	1	82.10	2.88	92.15	0.0007	3868	11.0	20.14	242.7
0.831	1	83.10	2.78	92.95	0.0003	3868	11.0	20.14	197.3
0.841	1	84.10	4.87	99.19	0.0001	3848	11.0	20.15	155.7
0.851	1	85.10	6.07	999.00	0.0000	3952	11.0	20.14	133.9
0.861	2	0.07	5.82	999.00	0.0000	8275	11.0	20.14	135.7
0.871	2	1.07	5.76	999.00	0.0000	3797	11.0	20.14	160.8
0.881	2	2.07	6.01	999.00	0.0000	3813	11.0	20.15	197.5
0.891	2	3.07	5.61	93.32	0.0004	3849	12.0	20.16	241.3
0.901	2	4.07	5.04	93.65	0.0003	3869	12.0	20.15	280.0
0.911	2	5.07	1.75	91.35	0.0018	3829	12.0	20.15	306.8
0.921	2	6.07	1.09	91.41	0.0017	3736	13.0	20.15	321.3
0.931	2	7.07	0.74	89.67	0.0010	3650	13.0	20.15	330.5
0.941	2	8.07	0.53	90.02	0.0029	3770	14.0	20.15	333.4
0.951	2	9.07	0.54	90.63	0.0024	3829	14.0	20.15	334.2
0.961	2	10.07	0.47	91.59	0.0040	3945	15.0	20.15	335.3
0.971	2	11.07	0.47	92.09	0.0072	3832	15.0	20.15	337.8
0.981	2	12.07	0.47	92.01	0.0058	3762	16.0	20.15	340.5
0.991	2	13.07	0.41	91.71	0.0046	3797	15.0	20.15	341.5
1.001	2	14.07	0.41	91.61	0.0045	3799	16.0	20.15	345.9
1.011	2	15.07	0.41	91.24	0.0043	3689	17.0	20.16	346.7
1.021	2	16.07	0.41	90.94	0.0034	3752	18.0	20.15	347.8
1.031	2	17.07	0.41	90.87	0.0027	3683	17.0	20.16	348.2
1.041	2	18.07	0.40	90.63	0.0028	3735	18.0	20.15	348.8
1.051	2	19.07	0.42	90.78	0.0030	3734	19.0	20.16	349.2
1.061	2	20.07	0.41	90.93	0.0042	3776	19.0	20.15	349.3
1.071	2	21.07	0.37	91.15	0.0039	3831	19.0	20.15	347.2
1.081	2	22.07	0.36	91.13	0.0035	3813	20.0	20.15	347.6
1.091	2	23.07	0.41	91.28	0.0034	3771	21.0	20.15	350.0
1.101	2	24.07	0.41	91.39	0.0032	3777	21.0	20.15	349.7
1.111	2	25.07	0.41	91.13	0.0027	3713	21.0	20.16	353.5
1.121	2	26.07	0.40	90.40	0.0022	3592	22.0	20.16	357.7
1.131	2	27.07	0.36	90.08	0.0019	3675	23.0	20.16	359.7
1.141	2	28.07	0.41	90.04	0.0018	3642	24.0	20.17	361.5
1.151	2	29.07	0.41	90.08	0.0014	3663	25.0	20.17	363.5
1.161	2	30.07	0.37	90.50	0.0015	3740	25.0	20.16	363.9
1.171	2	31.07	0.35	91.21	0.0019	3727	25.0	20.16	360.2
1.181	2	32.07	0.41	91.52	0.0013	3751	26.0	20.16	357.6
1.191	2	33.07	0.37	92.09	0.0014	3910	27.0	20.16	356.4
1.201	2	34.07	0.36	92.46	0.0020	3863	28.0	20.16	356.5
1.211	2	35.07	0.37	92.58	0.0018	3847	29.0	20.16	357.3
1.221	2	36.07	0.36	92.51	0.0019	3833	28.0	20.16	356.0
1.231	2	37.07	0.37	92.26	0.0019	3780	28.0	20.16	353.6
1.241	2	38.07	0.41	91.78	0.0014	3731	27.0	20.16	348.6
1.251	2	39.07	0.41	90.99	0.0011	3735	28.0	20.16	345.3
1.261	2	40.07	0.41	91.02	0.0014	3720	24.0	20.15	342.6
1.271	2	41.07	0.47	91.37	0.0011	3747	24.0	20.16	338.8
1.281	2	42.07	0.44	91.31	0.0010	3753	23.0	20.16	338.9
1.291	2	43.07	0.41	91.47	0.0014	3803	24.0	20.16	335.9
1.301	2	44.07	0.46	91.54	0.0016	3751	24.0	20.16	336.1
1.311	2	45.07	0.47	91.35	0.0016	3679	23.0	20.17	333.8
1.321	2	46.07	0.42	91.31	0.0015	3728	23.0	20.17	329.4
1.331	2	47.07	0.47	91.24	0.0019	3739	24.0	20.17	328.7
1.341	2	48.07	0.47	91.05	0.0025	3749	23.0	20.16	329.7
1.351	2	49.07	0.40	90.86	0.0021	3692	22.0	20.17	329.5
1.361	2	50.07	0.39	90.61	0.0021	3725	23.0	20.17	333.5
1.371	2	51.07	0.36	90.62	0.0025	3658	23.0	20.16	338.8
1.381	2	52.07	0.36	90.49	0.0021	3721	22.0	20.16	342.5
1.391	2	53.07	0.41	90.43	0.0022	3729	22.0	20.16	346.1
1.401	2	54.07	0.35	90.13	0.0021	3656	22.0	20.17	352.3
1.411	2	55.07	0.35	89.84	0.0017	3675	22.0	20.16	361.8
1.421	2	56.07	0.37	90.07	0.0010	3638	22.0	20.17	371.6
1.431	2	57.07	0.35	90.07	0.0016	3649	21.0	20.17	377.0
1.441	2	58.07	0.34	89.70	0.0013	3734	21.0	20.17	376.7
1.451	2	59.07	0.35	89.75	0.0014	3772	21.0	20.17	373.5
1.461	2	60.07	0.34	90.13	0.0011	3909	21.0	20.17	372.8
1.471	2	61.07	0.35	90.43	0.0016	3943	21.0	20.17	373.2
1.481	2	62.07	0.34	90.57	0.0011	3828	21.0	20.17	376.6
1.491	2	63.07	0.34	90.89	0.0009	3789	21.0	20.17	380.5
1.501	2	64.07	0.35	91.11	0.0010	3794	21.0	20.18	385.9
1.511	2	65.07	0.36	91.44	0.0013	3819	22.0	20.17	391.8
1.521	2	66.07	0.37	91.60	0.0013	3827	21.0	20.18	396.4
1.531	2	67.07	0.36	91.21	0.0010	3792	21.0	20.18	398.6
1.541	2	68.07	0.37	90.85	0.0007	3726	21.0	20.17	395.5
1.551	2	69.07	0.37	90.58	0.0006	3805	21.0	20.18	389.0
1.561	2	70.07	0.38	90.89	0.0006	3991	21.0	20.18	381.1
1.571	2	71.07	0.35	90.93	0.0008	3940	21.0	20.19	377.7
1.581	2	72.07	0.35	91.54	0.0007	3836	23.0	20.41	376.0
1.591	2	73.07	0.32	91.98	0.0015	3880	23.0	20.12	375.5
1.601	2	74.07	0.30	92.09	0.0013	3806	23.0	20.03	372.4
1.611	2	75.07	0.31	92.03	0.0013	3777	24.0	20.07	372.3
1.621	2	76.07	0.36	91.81	0.0011	3787	24.0	20.15	371.1
1.631	2	77.07	0.37	91.74	0.0011	3788	25.0	20.26	369.6
1.641	2	78.07	0.37	91.75	0.0010	3753	24.0	20.33	367.6
1.651	2	79.07	0.36	91.96	0.0011	3860	25.0	20.40	364.2
1.661	2	80.07	0.36	92.04	0.0011	3824	25.0	20.45	360.9
1.671	2	81.07	0.39	92.02	0.0013	3938	24.0	20.48	358.8
1.681	2	82.07	0.36	92.45	0.0020	3945	24.0	20.49	360.8
1.691	2	83.07	0.37	92.50	0.0019	3899	24.0	20.50	367.7
1.701	2	84.07	0.41	92.16	0.0018	3841	24.0	20.51	372.3
1.711	2	85.07	0.36	91.94	0.0017	3791	23.0	20.52	373.5
1.721	2	86.07	0.38	91.74	0.0016	3786	23.0	20.52	362.5
1.731	2	87.07	0.39	91.74	0.0015	3853	24.0	20.53	372.3
1.741	2	88.07	0.36	91.86	0.0018	3800	22.0	20.55	382.0
1.751	2	89.07	0.33	91.55	0.0011	3824	21.0	20.56	392.4
1.761	2	90.07	0.32	91.23	0.0009	3795	22.0	20.57	400.2
1.771	2	91.07	0.31	90.94	0.0009	3770	20.0	20.57	404.7
1.781	2	92.07	0.30	90.90	0.0015	3778	21.0	20.58	404.5
1.791	2	93.07	0.33	90.98	0.0011	3743	20.0	20.58	396.3
1.801	2	94.07	0.35	90.88	0.0011	3703	20.0	20.59	391.9
1.811	2	95.07	0.57	91.06	0.0012	3778	20.0	20.60	387.6
1.821	2	96.07	1.42	91.11	0.0004	3696	20.0	20.60	381.5
1.831	2	97.07	3.45	91.56	0.0002	3688	19.0	20.60	373.1
1.841	2	98.07	3.04	92.50	0.0001	3618	20.0	20.61	359.6
1.851	2	99.07	3.10	999.00	0.0000	3598	20.0	20.59	338.1
1.861	2	100.07	2.73	91.23	0.0005	3600	19.0	20.59	309.4
1.871	2	101.07	2.70	91.81	0.0009	3637	18.0	20.58	271.2
1.881	2	102.07	2.48	92.13	0.0003	3701	17.0	20.57	222.3
1.891	2	103.07	2.76	91.43	0.0003	3752	-9254.0	20.56	161.7
1.901	2	104.07	3.01	91.81	0.0005	4306	11.0	20.57	104.3
1.911	2	105.07	2.54	999.00	0.0000	10789	8.0	20.57	64.9
